<WeldAnalyseData xmlns:i="http:www.w3.org/2001/XMLSchema-instance">
<WeldParameter>
<TimeStamp>DT#2024-01-24-13:59:50</TimeStamp>
<Generator>SG-22-10000</Generator>
<GenFreq>20</GenFreq>
<MaxForce>8000</MaxForce>
<MaxPower>10000</MaxPower>
<RunupPressure>1.5</RunupPressure>
<RunupDist>10</RunupDist>
<RunPress>0.8</RunPress>
<ShakeDelay>0.03</ShakeDelay>
<ShakeTime>0.3</ShakeTime>
<RunBackPress1>6</RunBackPress1>
<RunBackPress2>2</RunBackPress2>
<RunBackDist>1</RunBackDist>
<TrigValue>500</TrigValue>
<TrigModeUnit>W</TrigModeUnit>
<WeldModeUnit>Ws</WeldModeUnit>
<PressNr>0</PressNr>
<MaxLoss>1500</MaxLoss>
</WeldParameter>
<WeldSets>
<WeldSet>
<PressRiseTime>0</PressRiseTime>
<RunPressure>1</RunPressure>
<Amplitude>86</Amplitude>
<WeldMode>3270</WeldMode>
</WeldSet>
</WeldSets>
<WeldValue>
<WeldNr>2956</WeldNr>
<RecipeName>RickStyle</RecipeName>
<WeldTime>1659</WeldTime>
<DistDiff>2.34</DistDiff>
<DistAbs>77.98</DistAbs>
<Energy>3271.1</Energy>
<MaxPower>2226.59</MaxPower>
<CycleTime>5950</CycleTime>
<TrigForce>506.607</TrigForce>
<TrigDist>75.64</TrigDist>
<RunSpeed>68.2671</RunSpeed>
<MaxForce>617.206</MaxForce>
<LossPower>328.723</LossPower>
</WeldValue>
</WeldAnalyseData>
#CSV-START#
ms;Power[W];Force[N];Distance[mm]
1;0;0;0
2;0;508.56;0
3;0;508.56;0
4;0;506.607;0
5;0;506.607;0
6;0;510.514;0
7;0;510.514;0
8;0;490.738;0
9;0;427.503;0.0200043
10;0;413.831;0.0400009
11;0;380.139;0.0699997
12;29.2596;362.56;0.110001
13;100.673;348.643;0.139999
14;184.599;336.68;0.18
15;266.083;336.68;0.220001
16;340.243;295.419;0.260002
17;406.774;303.232;0.309998
18;471.168;323.008;0.349998
19;537.698;285.409;0.400002
20;599.651;309.091;0.440002
21;651.227;311.045;0.480003
22;713.179;328.867;0.510002
23;787.034;323.008;0.540001
24;853.87;332.774;0.57
25;920.4;324.961;0.590004
26;974.723;368.419;0.610001
27;1009.51;358.409;0.629997
28;1044;340.831;0.650002
29;1108.09;407.971;0.660004
30;1164.85;388.195;0.669998
31;1211.85;396.008;0.68
32;1253.97;392.102;0.690002
33;1281.13;409.925;0.690002
34;1295.78;407.971;0.699997
35;1322.94;427.503;0.709999
36;1384.59;384.045;0.709999
37;1424.26;409.925;0.720001
38;1463.63;437.513;0.730003
39;1493.23;384.045;0.739998
40;1500.86;413.831;0.739998
41;1500.86;415.784;0.75
42;1522.84;431.654;0.760002
43;1564.95;419.691;0.760002
44;1597;421.644;0.770004
45;1616.83;409.925;0.779999
46;1626.6;451.186;0.779999
47;1611.95;433.607;0.790001
48;1604.32;407.971;0.790001
49;1648.88;469.008;0.800003
50;1693.43;437.513;0.809998
51;1727.92;437.513;0.82
52;1752.64;431.654;0.82
53;1759.96;447.279;0.830002
54;1755.08;445.326;0.840004
55;1772.48;461.196;0.849998
56;1834.12;423.597;0.849998
57;1881.12;451.186;0.860001
58;1913.17;470.962;0.870003
59;1927.82;417.737;0.870003
60;1920.49;453.383;0.879997
61;1903.1;459.243;0.889999
62;1910.73;470.962;0.889999
63;1952.54;457.289;0.900002
64;1977.26;455.336;0.900002
65;1989.77;453.383;0.910004
66;1984.58;492.691;0.910004
67;1954.98;467.055;0.919998
68;1932.7;455.336;0.919998
69;1967.49;512.467;0.93
70;2014.18;477.065;0.93
71;2036.46;475.112;0.940002
72;2048.97;470.962;0.940002
73;2041.34;486.831;0.949997
74;2019.37;482.925;0.949997
75;2021.81;510.514;0.949997
76;2081.02;469.008;0.959999
77;2120.39;480.972;0.959999
78;2147.55;520.524;0.970001
79;2152.74;469.008;0.970001
80;2125.58;484.878;0.970001
81;2093.23;486.831;0.980003
82;2093.23;504.654;0.980003
83;2128.02;479.019;0.989998
84;2149.99;494.644;0.989998
85;2157.62;470.962;0.989998
86;2140.23;520.524;1
87;2103.3;504.654;1
88;2066.06;465.102;1.01
89;2098.41;522.477;1.01
90;2140.23;508.56;1.01
91;2160.06;512.467;1.02
92;2164.95;492.691;1.02
93;2149.99;520.524;1.02
94;2117.95;508.56;1.03
95;2110.62;538.102;1.03
96;2169.83;490.738;1.03
97;2207.06;506.607;1.04
98;2224.15;544.206;1.04
99;2226.59;484.878;1.04
100;2196.99;508.56;1.05
101;2155.18;506.607;1.05
102;2152.74;522.477;1.05
103;2179.9;502.701;1.05
104;2196.99;512.467;1.06
105;2204.31;490.738;1.06
106;2189.67;540.056;1.06
107;2147.55;518.326;1.07
108;2105.74;482.925;1.07
109;2130.46;542.009;1.07
110;2167.39;522.477;1.08
111;2184.78;526.383;1.08
112;2187.22;506.607;1.08
113;2169.83;526.383;1.09
114;2132.9;520.524;1.09
115;2120.39;544.206;1.09
116;2169.83;496.597;1.09
117;2204.31;516.373;1.1
118;2224.15;552.019;1.1
119;2219.27;492.691;1.1
120;2189.67;520.524;1.11
121;2145.11;516.373;1.11
122;2135.34;532.243;1.11
123;2164.95;512.467;1.11
124;2179.9;522.477;1.12
125;2179.9;502.701;1.12
126;2162.5;553.972;1.12
127;2117.95;528.336;1.12
128;2076.14;496.597;1.13
129;2105.74;553.972;1.13
130;2149.99;532.243;1.13
131;2174.71;532.243;1.13
132;2179.9;516.373;1.14
133;2160.06;536.149;1.14
134;2125.58;532.243;1.14
135;2108.18;550.066;1.14
136;2160.06;502.701;1.15
137;2192.11;526.383;1.15
138;2209.5;557.878;1.15
139;2209.5;498.795;1.15
140;2174.71;528.336;1.16
141;2132.9;524.43;1.16
142;2117.95;540.056;1.16
143;2142.67;522.477;1.16
144;2152.74;528.336;1.17
145;2155.18;512.467;1.17
146;2135.34;561.785;1.17
147;2090.78;534.196;1.17
148;2046.53;506.607;1.17
149;2066.06;567.888;1.18
150;2103.3;536.149;1.18
151;2117.95;536.149;1.18
152;2122.83;526.383;1.18
153;2108.18;542.009;1.18
154;2061.18;538.102;1.19
155;2073.69;555.925;1.19
156;2125.58;510.514;1.19
157;2152.74;534.196;1.19
158;2167.39;559.832;1.19
159;2155.18;500.748;1.2
160;2122.83;534.196;1.2
161;2081.02;532.243;1.2
162;2095.67;546.159;1.2
163;2120.39;528.336;1.2
164;2128.02;532.243;1.21
165;2122.83;524.43;1.21
166;2093.23;565.935;1.21
167;2044.09;538.102;1.21
168;2019.37;516.373;1.21
169;2056.3;579.608;1.22
170;2083.46;542.009;1.22
171;2090.78;540.056;1.22
172;2093.23;534.196;1.22
173;2068.51;550.066;1.22
174;2036.46;546.159;1.22
175;2044.09;561.785;1.23
176;2095.67;518.326;1.23
177;2117.95;548.112;1.23
178;2135.34;565.935;1.23
179;2125.58;508.56;1.23
180;2090.78;542.009;1.23
181;2056.3;540.056;1.24
182;2063.62;553.972;1.24
183;2088.34;538.102;1.24
184;2095.67;532.243;1.24
185;2093.23;532.243;1.24
186;2066.06;569.842;1.24
187;2019.37;542.009;1.24
188;1994.65;524.43;1.25
189;2029.14;583.514;1.25
190;2056.3;548.112;1.25
191;2063.62;550.066;1.25
192;2066.06;534.196;1.25
193;2048.97;557.878;1.25
194;2014.18;546.159;1.26
195;2021.81;569.842;1.26
196;2071.25;522.477;1.26
197;2095.67;544.206;1.26
198;2108.18;575.701;1.26
199;2103.3;516.373;1.26
200;2066.06;544.206;1.26
201;2034.02;542.009;1.27
202;2038.9;557.878;1.27
203;2063.62;538.102;1.27
204;2071.25;546.159;1.27
205;2071.25;528.336;1.27
206;2048.97;579.608;1.27
207;2001.98;550.066;1.28
208;1974.81;522.477;1.28
209;2009.3;581.561;1.28
210;2034.02;553.972;1.28
211;2046.53;552.019;1.28
212;2048.97;542.009;1.28
213;2026.7;559.832;1.28
214;1994.65;553.972;1.29
215;1997.09;573.748;1.29
216;2048.97;526.383;1.29
217;2078.58;552.019;1.29
218;2090.78;575.701;1.29
219;2085.9;520.524;1.29
220;2051.42;552.019;1.29
221;2016.93;550.066;1.3
222;2024.25;561.785;1.3
223;2046.53;546.159;1.3
224;2056.3;550.066;1.3
225;2053.86;540.056;1.3
226;2029.14;581.561;1.3
227;1987.02;553.972;1.3
228;1957.42;530.29;1.31
229;1992.21;591.571;1.31
230;2019.37;555.925;1.31
231;2034.02;555.925;1.31
232;2034.02;548.112;1.31
233;2016.93;563.738;1.31
234;1982.14;559.832;1.31
235;1987.02;573.748;1.32
236;2038.9;532.243;1.32
237;2066.06;559.832;1.32
238;2078.58;577.654;1.32
239;2073.69;520.524;1.32
240;2041.34;553.972;1.32
241;2009.3;555.925;1.32
242;2009.3;563.738;1.32
243;2034.02;550.066;1.33
244;2041.34;552.019;1.33
245;2041.34;544.206;1.33
246;2019.37;581.561;1.33
247;1974.81;561.785;1.33
248;1945.21;524.43;1.33
249;1979.7;573.748;1.33
250;2009.3;565.935;1.34
251;2021.81;563.738;1.34
252;2024.25;548.112;1.34
253;2006.86;565.935;1.34
254;1974.81;557.878;1.34
255;1974.81;585.467;1.34
256;2026.7;544.206;1.34
257;2053.86;555.925;1.34
258;2066.06;589.618;1.35
259;2061.18;540.056;1.35
260;2034.02;552.019;1.35
261;1999.53;552.019;1.35
262;2001.98;571.795;1.35
263;2026.7;552.019;1.35
264;2034.02;559.832;1.35
265;2036.46;536.149;1.35
266;2014.18;579.608;1.36
267;1972.37;561.785;1.36
268;1940.33;528.336;1.36
269;1967.49;579.608;1.36
270;1999.53;567.888;1.36
271;2011.74;567.888;1.36
272;2016.93;550.066;1.36
273;1994.65;571.795;1.36
274;1965.05;559.832;1.36
275;1965.05;589.618;1.37
276;2016.93;546.159;1.37
277;2044.09;557.878;1.37
278;2058.74;597.43;1.37
279;2056.3;540.056;1.37
280;2029.14;555.925;1.37
281;1989.77;555.925;1.37
282;1989.77;573.748;1.37
283;2014.18;553.972;1.38
284;2021.81;563.738;1.38
285;2021.81;540.056;1.38
286;2001.98;587.42;1.38
287;1962.61;567.888;1.38
288;1930.26;534.196;1.38
289;1959.86;591.571;1.38
290;1992.21;571.795;1.38
291;2004.42;573.748;1.39
292;2009.3;555.925;1.39
293;1994.65;579.608;1.39
294;1959.86;567.888;1.39
295;1965.05;591.571;1.39
296;2016.93;546.159;1.39
297;2041.34;561.785;1.39
298;2051.42;601.337;1.39
299;2044.09;544.206;1.39
300;2014.18;565.935;1.4
301;1982.14;561.785;1.4
302;1987.02;579.608;1.4
303;2011.74;557.878;1.4
304;2019.37;567.888;1.4
305;2019.37;550.066;1.4
306;1994.65;597.43;1.4
307;1950.09;573.748;1.4
308;1925.37;538.102;1.4
309;1959.86;601.337;1.41
310;1989.77;575.701;1.41
311;1999.53;577.654;1.41
312;2004.42;563.738;1.41
313;1984.58;585.467;1.41
314;1952.54;569.842;1.41
315;1959.86;595.477;1.41
316;2009.3;548.112;1.41
317;2036.46;571.795;1.41
318;2046.53;601.337;1.42
319;2041.34;544.206;1.42
320;2009.3;569.842;1.42
321;1977.26;567.888;1.42
322;1982.14;581.561;1.42
323;2006.86;563.738;1.42
324;2014.18;571.795;1.42
325;2014.18;553.972;1.42
326;1992.21;603.29;1.42
327;1950.09;575.701;1.42
328;1920.49;548.112;1.43
329;1954.98;607.196;1.43
330;1984.58;577.654;1.43
331;1994.65;577.654;1.43
332;1997.09;569.842;1.43
333;1977.26;587.42;1.43
334;1947.65;579.608;1.43
335;1957.42;599.384;1.43
336;2004.42;550.066;1.43
337;2031.58;575.701;1.44
338;2044.09;605.243;1.44
339;2038.9;544.206;1.44
340;2011.74;575.701;1.44
341;1974.81;575.701;1.44
342;1979.7;587.42;1.44
343;2004.42;569.842;1.44
344;2009.3;573.748;1.44
345;2011.74;561.785;1.44
346;1989.77;605.243;1.44
347;1945.21;577.654;1.45
348;1918.05;557.878;1.45
349;1950.09;613.3;1.45
350;1979.7;581.561;1.45
351;1992.21;581.561;1.45
352;1994.65;571.795;1.45
353;1977.26;587.42;1.45
354;1945.21;583.514;1.45
355;1950.09;599.384;1.45
356;1999.53;555.925;1.46
357;2024.25;579.608;1.46
358;2038.9;601.337;1.46
359;2036.46;546.159;1.46
360;2004.42;579.608;1.46
361;1972.37;579.608;1.46
362;1974.81;589.618;1.46
363;1999.53;569.842;1.46
364;2006.86;581.561;1.46
365;2011.74;553.972;1.46
366;1992.21;593.524;1.46
367;1945.21;583.514;1.47
368;1918.05;550.066;1.47
369;1947.65;597.43;1.47
370;1979.7;589.618;1.47
371;1992.21;587.42;1.47
372;1992.21;569.842;1.47
373;1977.26;593.524;1.47
374;1945.21;581.561;1.47
375;1947.65;609.149;1.47
376;1997.09;567.888;1.47
377;2024.25;577.654;1.48
378;2044.09;611.347;1.48
379;2038.9;561.785;1.48
380;2011.74;573.748;1.48
381;1974.81;573.748;1.48
382;1974.81;593.524;1.48
383;1999.53;571.795;1.48
384;2006.86;579.608;1.48
385;2006.86;555.925;1.48
386;1987.02;599.384;1.48
387;1945.21;583.514;1.49
388;1915.61;548.112;1.49
389;1945.21;603.29;1.49
390;1974.81;587.42;1.49
391;1987.02;589.618;1.49
392;1992.21;571.795;1.49
393;1972.37;593.524;1.49
394;1942.77;581.561;1.49
395;1942.77;607.196;1.49
396;1992.21;563.738;1.49
397;2021.81;579.608;1.49
398;2036.46;615.253;1.5
399;2031.58;559.832;1.5
400;2004.42;575.701;1.5
401;1967.49;575.701;1.5
402;1967.49;595.477;1.5
403;1994.65;567.888;1.5
404;2004.42;581.561;1.5
405;2004.42;555.925;1.5
406;1984.58;605.243;1.5
407;1945.21;585.467;1.5
408;1913.17;550.066;1.5
409;1942.77;605.243;1.51
410;1974.81;585.467;1.51
411;1987.02;587.42;1.51
412;1989.77;571.795;1.51
413;1977.26;593.524;1.51
414;1942.77;581.561;1.51
415;1940.33;605.243;1.51
416;1987.02;559.832;1.51
417;2019.37;579.608;1.51
418;2031.58;609.149;1.51
419;2031.58;557.878;1.51
420;2001.98;577.654;1.52
421;1969.93;573.748;1.52
422;1967.49;593.524;1.52
423;1992.21;569.842;1.52
424;2004.42;579.608;1.52
425;2001.98;559.832;1.52
426;1984.58;607.196;1.52
427;1945.21;583.514;1.52
428;1910.73;553.972;1.52
429;1937.89;607.196;1.52
430;1969.93;583.514;1.52
431;1982.14;585.467;1.52
432;1989.77;571.795;1.53
433;1972.37;593.524;1.53
434;1942.77;583.514;1.53
435;1940.33;607.196;1.53
436;1987.02;555.925;1.53
437;2016.93;579.608;1.53
438;2029.14;609.149;1.53
439;2031.58;552.019;1.53
440;2001.98;579.608;1.53
441;1965.05;575.701;1.53
442;1965.05;589.618;1.53
443;1992.21;573.748;1.53
444;1999.53;577.654;1.54
445;2004.42;559.832;1.54
446;1984.58;611.347;1.54
447;1945.21;579.608;1.54
448;1913.17;552.019;1.54
449;1935.45;613.3;1.54
450;1969.93;583.514;1.54
451;1979.7;585.467;1.54
452;1987.02;571.795;1.54
453;1972.37;591.571;1.54
454;1940.33;583.514;1.54
455;1935.45;601.337;1.54
456;1982.14;553.972;1.55
457;2011.74;579.608;1.55
458;2031.58;607.196;1.55
459;2031.58;548.112;1.55
460;2004.42;577.654;1.55
461;1972.37;577.654;1.55
462;1965.05;591.571;1.55
463;1989.77;571.795;1.55
464;1999.53;577.654;1.55
465;1999.53;559.832;1.55
466;1984.58;609.149;1.55
467;1942.77;579.608;1.55
468;1910.73;555.925;1.55
469;1935.45;617.206;1.56
470;1969.93;583.514;1.56
471;1982.14;581.561;1.56
472;1987.02;573.748;1.56
473;1969.93;591.571;1.56
474;1942.77;585.467;1.56
475;1932.7;599.384;1.56
476;1982.14;555.925;1.56
477;2014.18;581.561;1.56
478;2031.58;611.347;1.56
479;2031.58;553.972;1.56
480;2004.42;577.654;1.56
481;1969.93;573.748;1.57
482;1965.05;589.618;1.57
483;1992.21;569.842;1.57
484;1997.09;579.608;1.57
485;2001.98;557.878;1.57
486;1987.02;609.149;1.57
487;1947.65;579.608;1.57
488;1910.73;550.066;1.57
489;1932.7;609.149;1.57
490;1967.49;587.42;1.57
491;1982.14;585.467;1.57
492;1984.58;571.795;1.57
493;1974.81;593.524;1.57
494;1945.21;581.561;1.57
495;1935.45;603.29;1.58
496;1982.14;557.878;1.58
497;2014.18;579.608;1.58
498;2029.14;609.149;1.58
499;2031.58;552.019;1.58
500;2004.42;579.608;1.58
501;1969.93;575.701;1.58
502;1962.61;589.618;1.58
503;1989.77;569.842;1.58
504;1997.09;577.654;1.58
505;2001.98;559.832;1.58
506;1987.02;611.347;1.58
507;1947.65;583.514;1.58
508;1913.17;553.972;1.59
509;1930.26;613.3;1.59
510;1967.49;583.514;1.59
511;1977.26;583.514;1.59
512;1982.14;571.795;1.59
513;1972.37;591.571;1.59
514;1942.77;581.561;1.59
515;1932.7;601.337;1.59
516;1979.7;555.925;1.59
517;2011.74;581.561;1.59
518;2029.14;609.149;1.59
519;2029.14;552.019;1.59
520;2006.86;579.608;1.59
521;1972.37;575.701;1.59
522;1957.42;593.524;1.6
523;1987.02;571.795;1.6
524;1994.65;575.701;1.6
525;1997.09;565.935;1.6
526;1982.14;609.149;1.6
527;1942.77;581.561;1.6
528;1903.1;557.878;1.6
529;1925.37;617.206;1.6
530;1962.61;583.514;1.6
531;1977.26;581.561;1.6
532;1982.14;573.748;1.6
533;1974.81;589.618;1.6
534;1945.21;585.467;1.6
535;1930.26;599.384;1.61
536;1972.37;575.701;1.61
537;2009.3;575.701;1.61
538;2024.25;613.3;1.61
539;2031.58;567.888;1.61
540;2004.42;573.748;1.61
541;1967.49;575.701;1.61
542;1954.98;593.524;1.61
543;1982.14;571.795;1.61
544;1992.21;577.654;1.61
545;1999.53;553.972;1.61
546;1984.58;595.477;1.61
547;1947.65;587.42;1.61
548;1908.28;550.066;1.62
549;1925.37;599.384;1.62
550;1959.86;593.524;1.62
551;1979.7;587.42;1.62
552;1984.58;571.795;1.62
553;1972.37;593.524;1.62
554;1942.77;581.561;1.62
555;1930.26;607.196;1.62
556;1972.37;569.842;1.62
557;2009.3;579.608;1.62
558;2026.7;611.347;1.62
559;2031.58;561.785;1.62
560;2009.3;571.795;1.62
561;1977.26;573.748;1.62
562;1959.86;593.524;1.63
563;1984.58;569.842;1.63
564;1997.09;579.608;1.63
565;1999.53;557.878;1.63
566;1989.77;601.337;1.63
567;1950.09;587.42;1.63
568;1910.73;548.112;1.63
569;1927.82;601.337;1.63
570;1959.86;589.618;1.63
571;1977.26;587.42;1.63
572;1984.58;571.795;1.63
573;1974.81;593.524;1.63
574;1947.65;583.514;1.63
575;1940.33;607.196;1.63
576;1992.21;565.935;1.64
577;2014.18;577.654;1.64
578;2029.14;611.347;1.64
579;2024.25;559.832;1.64
580;1997.09;573.748;1.64
581;1962.61;571.795;1.64
582;1967.49;593.524;1.64
583;1992.21;569.842;1.64
584;2001.98;577.654;1.64
585;1999.53;555.925;1.64
586;1974.81;607.196;1.64
587;1932.7;583.514;1.64
588;1908.28;548.112;1.64
589;1942.77;607.196;1.64
590;1969.93;587.42;1.65
591;1984.58;587.42;1.65
592;1982.14;571.795;1.65
593;1965.05;591.571;1.65
594;1937.89;583.514;1.65
595;1942.77;605.243;1.65
596;1994.65;557.878;1.65
597;2016.93;577.654;1.65
598;2031.58;613.3;1.65
599;2029.14;553.972;1.65
600;1999.53;577.654;1.65
601;1962.61;575.701;1.65
602;1967.49;591.571;1.65
603;1992.21;567.888;1.66
604;2001.98;577.654;1.66
605;2001.98;559.832;1.66
606;1977.26;607.196;1.66
607;1940.33;585.467;1.66
608;1910.73;550.066;1.66
609;1942.77;611.347;1.66
610;1969.93;585.467;1.66
611;1982.14;585.467;1.66
612;1984.58;569.842;1.66
613;1969.93;591.571;1.66
614;1937.89;581.561;1.66
615;1940.33;603.29;1.66
616;1989.77;555.925;1.66
617;2019.37;579.608;1.67
618;2034.02;611.347;1.67
619;2031.58;552.019;1.67
620;2001.98;579.608;1.67
621;1969.93;573.748;1.67
622;1969.93;591.571;1.67
623;1994.65;571.795;1.67
624;2001.98;579.608;1.67
625;2001.98;561.785;1.67
626;1982.14;609.149;1.67
627;1940.33;583.514;1.67
628;1910.73;552.019;1.67
629;1940.33;611.347;1.67
630;1969.93;581.561;1.67
631;1979.7;583.514;1.68
632;1984.58;571.795;1.68
633;1967.49;589.618;1.68
634;1935.45;581.561;1.68
635;1937.89;601.337;1.68
636;1989.77;553.972;1.68
637;2016.93;579.608;1.68
638;2031.58;605.243;1.68
639;2029.14;546.159;1.68
640;2001.98;579.608;1.68
641;1965.05;577.654;1.68
642;1965.05;589.618;1.68
643;1992.21;569.842;1.68
644;1999.53;575.701;1.68
645;1999.53;563.738;1.69
646;1982.14;607.196;1.69
647;1937.89;581.561;1.69
648;1910.73;555.925;1.69
649;1937.89;613.3;1.69
650;1967.49;581.561;1.69
651;1982.14;581.561;1.69
652;1982.14;569.842;1.69
653;1967.49;591.571;1.69
654;1937.89;581.561;1.69
655;1935.45;605.243;1.69
656;1987.02;569.842;1.69
657;2016.93;575.701;1.69
658;2031.58;611.347;1.69
659;2029.14;565.935;1.7
660;2001.98;569.842;1.7
661;1965.05;575.701;1.7
662;1965.05;589.618;1.7
663;1992.21;571.795;1.7
664;2001.98;575.701;1.7
665;1999.53;553.972;1.7
666;1984.58;593.524;1.7
667;1940.33;585.467;1.7
668;1910.73;546.159;1.7
669;1942.77;595.477;1.7
670;1972.37;589.618;1.7
671;1982.14;583.514;1.7
672;1987.02;567.888;1.7
673;1974.81;591.571;1.71
674;1940.33;579.608;1.71
675;1940.33;607.196;1.71
676;1992.21;565.935;1.71
677;2019.37;575.701;1.71
678;2031.58;613.3;1.71
679;2031.58;561.785;1.71
680;2006.86;571.795;1.71
681;1969.93;571.795;1.71
682;1967.49;589.618;1.71
683;1997.09;565.935;1.71
684;2001.98;575.701;1.71
685;2004.42;550.066;1.71
686;1984.58;597.43;1.71
687;1945.21;581.561;1.71
688;1910.73;544.206;1.72
689;1937.89;599.384;1.72
690;1972.37;583.514;1.72
691;1982.14;585.467;1.72
692;1987.02;567.888;1.72
693;1974.81;591.571;1.72
694;1945.21;579.608;1.72
695;1940.33;605.243;1.72
696;1989.77;561.785;1.72
697;2019.37;573.748;1.72
698;2034.02;609.149;1.72
699;2034.02;555.925;1.72
700;2009.3;571.795;1.72
701;1974.81;571.795;1.72
702;1967.49;589.618;1.73
703;1994.65;563.738;1.73
704;2001.98;575.701;1.73
705;2006.86;552.019;1.73
706;1987.02;601.337;1.73
707;1947.65;581.561;1.73
708;1913.17;546.159;1.73
709;1935.45;601.337;1.73
710;1969.93;583.514;1.73
711;1982.14;583.514;1.73
712;1989.77;567.888;1.73
713;1974.81;591.571;1.73
714;1940.33;577.654;1.73
715;1935.45;603.29;1.73
716;1982.14;555.925;1.73
717;2011.74;573.748;1.74
718;2026.7;607.196;1.74
719;2029.14;553.972;1.74
720;2004.42;571.795;1.74
721;1965.05;569.842;1.74
722;1959.86;587.42;1.74
723;1987.02;565.935;1.74
724;1997.09;573.748;1.74
725;1999.53;553.972;1.74
726;1984.58;601.337;1.74
727;1942.77;579.608;1.74
728;1908.28;548.112;1.74
729;1932.7;601.337;1.74
730;1965.05;579.608;1.74
731;1979.7;581.561;1.74
732;1984.58;565.935;1.75
733;1969.93;587.42;1.75
734;1942.77;577.654;1.75
735;1932.7;601.337;1.75
736;1982.14;553.972;1.75
737;2014.18;575.701;1.75
738;2029.14;607.196;1.75
739;2031.58;548.112;1.75
740;2006.86;575.701;1.75
741;1972.37;571.795;1.75
742;1959.86;587.42;1.75
743;1989.77;565.935;1.75
744;1999.53;573.748;1.75
745;1999.53;557.878;1.75
746;1984.58;605.243;1.75
747;1945.21;579.608;1.76
748;1908.28;546.159;1.76
749;1930.26;609.149;1.76
750;1965.05;579.608;1.76
751;1982.14;581.561;1.76
752;1987.02;565.935;1.76
753;1974.81;587.42;1.76
754;1942.77;579.608;1.76
755;1932.7;599.384;1.76
