<WeldAnalyseData xmlns:i="http:www.w3.org/2001/XMLSchema-instance">
<WeldParameter>
<TimeStamp>DT#2024-01-25-11:46:10</TimeStamp>
<Generator>SG-22-10000</Generator>
<GenFreq>20</GenFreq>
<MaxForce>8000</MaxForce>
<MaxPower>10000</MaxPower>
<RunupPressure>1.5</RunupPressure>
<RunupDist>10</RunupDist>
<RunPress>0.8</RunPress>
<ShakeDelay>0.03</ShakeDelay>
<ShakeTime>0.3</ShakeTime>
<RunBackPress1>6</RunBackPress1>
<RunBackPress2>2</RunBackPress2>
<RunBackDist>1</RunBackDist>
<TrigValue>500</TrigValue>
<TrigModeUnit>W</TrigModeUnit>
<WeldModeUnit>Ws</WeldModeUnit>
<PressNr>0</PressNr>
<MaxLoss>1500</MaxLoss>
</WeldParameter>
<WeldSets>
<WeldSet>
<PressRiseTime>0</PressRiseTime>
<RunPressure>1</RunPressure>
<Amplitude>86</Amplitude>
<WeldMode>3270</WeldMode>
</WeldSet>
</WeldSets>
<WeldValue>
<WeldNr>3003</WeldNr>
<RecipeName>RickStyle</RecipeName>
<WeldTime>1667</WeldTime>
<DistDiff>2.31</DistDiff>
<DistAbs>78.09</DistAbs>
<Energy>3270.93</Energy>
<MaxPower>2200</MaxPower>
<CycleTime>6080</CycleTime>
<TrigForce>504.654</TrigForce>
<TrigDist>75.78</TrigDist>
<RunSpeed>68.8283</RunSpeed>
<MaxForce>617.206</MaxForce>
<LossPower>320.826</LossPower>
</WeldValue>
</WeldAnalyseData>
#CSV-START#
ms;Power[W];Force[N];Distance[mm]
1;0;0;0
2;0;502.701;0
3;0;502.701;0.0100021
4;0;502.701;0.0100021
5;0;502.701;0.0100021
6;0;504.654;0.0100021
7;0;500.748;0.0100021
8;0;470.962;0.0100021
9;0;423.597;0.0200043
10;0;401.868;0.0500031
11;0;362.56;0.0800018
12;34.7148;362.56;0.110001
13;101.245;338.633;0.150002
14;182.73;311.045;0.190002
15;261.772;332.774;0.230003
16;325.861;301.279;0.279999
17;387.509;295.419;0.32
18;449.461;283.456;0.370003
19;508.667;297.372;0.410004
20;565.432;295.419;0.450005
21;629.521;312.998;0.489998
22;711.005;295.419;0.520004
23;794.931;309.091;0.550003
24;869.091;344.737;0.580002
25;940.809;317.148;0.599998
26;987.808;330.821;0.620003
27;1027.18;344.737;0.630005
28;1076.62;368.419;0.650002
29;1140.71;366.466;0.650002
30;1187.7;386.242;0.660004
31;1229.51;376.232;0.669998
32;1254.23;421.644;0.669998
33;1261.86;409.925;0.669998
34;1271.63;384.045;0.68
35;1321.07;433.607;0.68
36;1365.32;421.644;0.690002
37;1400.11;425.55;0.690002
38;1434.6;413.831;0.700005
39;1454.44;431.654;0.700005
40;1461.76;425.55;0.709999
41;1486.48;447.279;0.709999
42;1545.69;409.925;0.720001
43;1587.8;427.503;0.720001
44;1622.29;459.243;0.730003
45;1642.12;403.821;0.730003
46;1639.38;427.503;0.739998
47;1627.17;427.503;0.739998
48;1647.01;441.42;0.75
49;1691.26;425.55;0.760002
50;1715.98;435.56;0.760002
51;1735.82;421.644;0.770004
52;1735.82;463.149;0.779999
53;1715.98;441.42;0.779999
54;1708.66;415.784;0.790001
55;1758.1;475.112;0.790001
56;1804.79;453.383;0.800003
57;1834.7;455.336;0.809998
58;1856.67;443.373;0.809998
59;1856.67;463.149;0.82
60;1846.9;461.196;0.82
61;1861.86;479.019;0.830002
62;1921.06;439.467;0.830002
63;1957.99;463.149;0.840004
64;1987.59;492.691;0.840004
65;1994.92;433.607;0.849998
66;1975.39;470.962;0.849998
67;1948.23;472.915;0.860001
68;1957.99;482.925;0.860001
69;1994.92;467.055;0.860001
70;2019.64;475.112;0.870003
71;2027.27;467.055;0.870003
72;2014.76;504.654;0.870003
73;1977.83;480.972;0.880005
74;1955.55;465.102;0.880005
75;1997.67;522.477;0.880005
76;2041.92;490.738;0.889999
77;2064.2;486.831;0.889999
78;2073.96;482.925;0.900002
79;2061.75;498.795;0.900002
80;2037.03;494.644;0.900002
81;2041.92;508.56;0.910004
82;2096.24;469.008;0.910004
83;2133.47;500.748;0.919998
84;2153;516.373;0.919998
85;2153;461.196;0.919998
86;2120.96;492.691;0.93
87;2084.03;492.691;0.93
88;2086.47;510.514;0.93
89;2120.96;488.784;0.940002
90;2133.47;498.795;0.940002
91;2138.36;482.925;0.950005
92;2113.64;530.29;0.950005
93;2069.08;506.607;0.950005
94;2044.36;479.019;0.959999
95;2081.59;542.009;0.959999
96;2123.4;512.467;0.959999
97;2140.8;512.467;0.970001
98;2143.24;498.795;0.970001
99;2128.28;520.524;0.970001
100;2096.24;512.467;0.980003
101;2098.68;530.29;0.980003
102;2148.12;486.831;0.980003
103;2177.72;514.42;0.989998
104;2192.68;538.102;0.989998
105;2185.05;477.065;0.989998
106;2148.12;512.467;1
107;2106.31;512.467;1
108;2106.31;522.477;1
109;2135.91;504.654;1.01
110;2145.68;508.56;1.01
111;2145.68;502.701;1.01
112;2123.4;542.009;1.02
113;2079.15;512.467;1.02
114;2049.24;496.597;1.02
115;2086.47;555.925;1.02
116;2125.84;520.524;1.03
117;2145.68;518.326;1.03
118;2145.68;510.514;1.03
119;2128.28;526.383;1.04
120;2093.8;520.524;1.04
121;2093.8;548.112;1.04
122;2145.68;510.514;1.04
123;2172.84;514.42;1.05
124;2187.8;557.878;1.05
125;2177.72;504.654;1.05
126;2140.8;514.42;1.05
127;2096.24;516.373;1.06
128;2093.8;532.243;1.06
129;2120.96;514.42;1.06
130;2128.28;524.43;1.06
131;2125.84;498.795;1.07
132;2098.68;544.206;1.07
133;2054.43;530.29;1.07
134;2022.08;490.738;1.07
135;2059.31;548.112;1.08
136;2091.36;530.29;1.08
137;2108.75;534.196;1.08
138;2113.64;516.373;1.08
139;2093.8;540.056;1.09
140;2061.75;528.336;1.09
141;2064.2;555.925;1.09
142;2118.52;514.42;1.09
143;2145.68;526.383;1.1
144;2160.63;563.738;1.1
145;2155.45;508.56;1.1
146;2123.4;524.43;1.1
147;2086.47;522.477;1.1
148;2088.92;540.056;1.11
149;2113.64;520.524;1.11
150;2123.4;530.29;1.11
151;2120.96;508.56;1.11
152;2096.24;557.878;1.11
153;2044.36;534.196;1.12
154;2012.31;502.701;1.12
155;2046.8;561.785;1.12
156;2076.4;538.102;1.12
157;2088.92;536.149;1.12
158;2088.92;524.43;1.13
159;2069.08;546.159;1.13
160;2032.15;534.196;1.13
161;2029.71;555.925;1.13
162;2079.15;514.42;1.13
163;2106.31;534.196;1.14
164;2116.08;563.738;1.14
165;2106.31;508.56;1.14
166;2071.52;534.196;1.14
167;2032.15;530.29;1.14
168;2027.27;546.159;1.15
169;2051.99;528.336;1.15
170;2061.75;534.196;1.15
171;2061.75;524.43;1.15
172;2034.59;565.935;1.15
173;1992.48;542.009;1.15
174;1960.43;514.42;1.16
175;1994.92;575.701;1.16
176;2029.71;544.206;1.16
177;2044.36;544.206;1.16
178;2046.8;532.243;1.16
179;2029.71;552.019;1.17
180;1997.67;546.159;1.17
181;2000.11;559.832;1.17
182;2049.24;518.326;1.17
183;2076.4;544.206;1.17
184;2091.36;565.935;1.17
185;2088.92;508.56;1.18
186;2056.87;540.056;1.18
187;2017.2;542.009;1.18
188;2022.08;555.925;1.18
189;2046.8;536.149;1.18
190;2059.31;542.009;1.18
191;2059.31;520.524;1.19
192;2032.15;555.925;1.19
193;1990.04;550.066;1.19
194;1960.43;514.42;1.19
195;1994.92;559.832;1.19
196;2024.83;555.925;1.19
197;2039.48;555.925;1.2
198;2044.36;536.149;1.2
199;2024.83;559.832;1.2
200;1990.04;548.112;1.2
201;1990.04;573.748;1.2
202;2037.03;536.149;1.2
203;2064.2;542.009;1.2
204;2076.4;579.608;1.21
205;2069.08;530.29;1.21
206;2034.59;538.102;1.21
207;1994.92;540.056;1.21
208;1994.92;557.878;1.21
209;2019.64;538.102;1.21
210;2027.27;548.112;1.22
211;2027.27;526.383;1.22
212;2002.55;569.842;1.22
213;1955.55;555.925;1.22
214;1930.83;520.524;1.22
215;1962.87;575.701;1.22
216;1992.48;555.925;1.22
217;2009.87;557.878;1.23
218;2012.31;542.009;1.23
219;1992.48;563.738;1.23
220;1960.43;550.066;1.23
221;1960.43;575.701;1.23
222;2007.43;532.243;1.23
223;2032.15;548.112;1.23
224;2046.8;585.467;1.24
225;2041.92;526.383;1.24
226;2007.43;548.112;1.24
227;1970.5;548.112;1.24
228;1967.76;565.935;1.24
229;1997.67;542.009;1.24
230;2002.55;552.019;1.24
231;2004.99;534.196;1.25
232;1982.71;581.561;1.25
233;1940.6;559.832;1.25
234;1910.99;526.383;1.25
235;1945.78;585.467;1.25
236;1980.27;559.832;1.25
237;1994.92;559.832;1.25
238;2000.11;548.112;1.25
239;1980.27;565.935;1.26
240;1953.11;555.925;1.26
241;1955.55;577.654;1.26
242;2004.99;532.243;1.26
243;2029.71;555.925;1.26
244;2044.36;585.467;1.26
245;2039.48;524.43;1.26
246;2007.43;555.925;1.26
247;1970.5;555.925;1.27
248;1967.76;565.935;1.27
249;1994.92;550.066;1.27
250;2002.55;557.878;1.27
251;2002.55;542.009;1.27
252;1980.27;585.467;1.27
253;1935.71;561.785;1.27
254;1908.55;532.243;1.28
255;1940.6;593.524;1.28
256;1975.39;561.785;1.28
257;1987.59;569.842;1.28
258;1990.04;552.019;1.28
259;1972.95;573.748;1.28
260;1940.6;559.832;1.28
261;1943.34;587.42;1.28
262;1990.04;542.009;1.28
263;2017.2;559.832;1.29
264;2027.27;593.524;1.29
265;2022.08;538.102;1.29
266;1992.48;557.878;1.29
267;1955.55;557.878;1.29
268;1955.55;573.748;1.29
269;1980.27;553.972;1.29
270;1985.15;561.785;1.29
271;1985.15;542.009;1.3
272;1965.32;589.618;1.3
273;1921.06;567.888;1.3
274;1896.34;536.149;1.3
275;1925.95;593.524;1.3
276;1960.43;567.888;1.3
277;1975.39;571.795;1.3
278;1980.27;555.925;1.3
279;1960.43;575.701;1.3
280;1933.27;567.888;1.31
281;1935.71;587.42;1.31
282;1980.27;544.206;1.31
283;2004.99;567.888;1.31
284;2019.64;593.524;1.31
285;2012.31;536.149;1.31
286;1982.71;563.738;1.31
287;1945.78;565.935;1.31
288;1948.23;575.701;1.32
289;1972.95;559.832;1.32
290;1977.83;567.888;1.32
291;1980.27;553.972;1.32
292;1955.55;579.608;1.32
293;1916.18;575.701;1.32
294;1886.27;542.009;1.32
295;1921.06;583.514;1.32
296;1955.55;585.467;1.32
297;1967.76;579.608;1.33
298;1972.95;561.785;1.33
299;1953.11;581.561;1.33
300;1923.51;573.748;1.33
301;1923.51;601.337;1.33
302;1972.95;563.738;1.33
303;2000.11;567.888;1.33
304;2009.87;607.196;1.33
305;2007.43;559.832;1.33
306;1975.39;563.738;1.34
307;1940.6;563.738;1.34
308;1940.6;585.467;1.34
309;1965.32;563.738;1.34
310;1970.5;571.795;1.34
311;1970.5;548.112;1.34
312;1950.67;587.42;1.34
313;1906.11;579.608;1.34
314;1878.95;540.056;1.34
315;1913.43;593.524;1.35
316;1948.23;585.467;1.35
317;1960.43;585.467;1.35
318;1962.87;563.738;1.35
319;1945.78;587.42;1.35
320;1918.62;579.608;1.35
321;1916.18;605.243;1.35
322;1965.32;561.785;1.35
323;1990.04;573.748;1.35
324;2002.55;609.149;1.36
325;1997.67;559.832;1.36
326;1970.5;571.795;1.36
327;1933.27;569.842;1.36
328;1933.27;587.42;1.36
329;1957.99;567.888;1.36
330;1965.32;575.701;1.36
331;1965.32;555.925;1.36
332;1943.34;601.337;1.36
333;1901.23;581.561;1.36
334;1874.07;548.112;1.37
335;1908.55;603.29;1.37
336;1940.6;585.467;1.37
337;1955.55;587.42;1.37
338;1960.43;571.795;1.37
339;1940.6;593.524;1.37
340;1913.43;581.561;1.37
341;1913.43;603.29;1.37
342;1960.43;559.832;1.37
343;1982.71;577.654;1.37
344;2000.11;613.3;1.38
345;1992.48;555.925;1.38
346;1962.87;577.654;1.38
347;1930.83;575.701;1.38
348;1918.62;589.618;1.38
349;1943.34;571.795;1.38
350;1955.55;581.561;1.38
351;1960.43;561.785;1.38
352;1948.23;607.196;1.38
353;1910.99;583.514;1.38
354;1874.07;553.972;1.39
355;1883.83;613.3;1.39
356;1923.51;587.42;1.39
357;1943.34;585.467;1.39
358;1955.55;573.748;1.39
359;1945.78;591.571;1.39
360;1918.62;583.514;1.39
361;1901.23;609.149;1.39
362;1935.71;577.654;1.39
363;1972.95;575.701;1.39
364;1992.48;613.3;1.39
365;1997.67;575.701;1.4
366;1977.83;571.795;1.4
367;1940.6;575.701;1.4
368;1921.06;593.524;1.4
369;1943.34;579.608;1.4
370;1957.99;581.561;1.4
371;1957.99;557.878;1.4
372;1948.23;593.524;1.4
373;1913.43;589.618;1.4
374;1876.51;552.019;1.4
375;1883.83;597.43;1.4
376;1925.95;595.477;1.41
377;1943.34;589.618;1.41
378;1953.11;571.795;1.41
379;1945.78;595.477;1.41
380;1921.06;585.467;1.41
381;1901.23;611.347;1.41
382;1938.15;575.701;1.41
383;1975.39;579.608;1.41
384;1994.92;615.253;1.41
385;2000.11;569.842;1.41
386;1977.83;575.701;1.41
387;1943.34;573.748;1.42
388;1923.51;597.43;1.42
389;1945.78;573.748;1.42
390;1955.55;581.561;1.42
391;1957.99;557.878;1.42
392;1948.23;599.384;1.42
393;1910.99;589.618;1.42
394;1876.51;552.019;1.42
395;1886.27;603.29;1.42
396;1923.51;595.477;1.42
397;1943.34;593.524;1.42
398;1955.55;573.748;1.42
399;1948.23;595.477;1.43
400;1921.06;585.467;1.43
401;1901.23;611.347;1.43
402;1935.71;569.842;1.43
403;1975.39;579.608;1.43
404;1990.04;615.253;1.43
405;1997.67;561.785;1.43
406;1977.83;579.608;1.43
407;1938.15;575.701;1.43
408;1918.62;593.524;1.43
409;1943.34;573.748;1.43
410;1957.99;583.514;1.43
411;1960.43;559.832;1.44
412;1950.67;609.149;1.44
413;1913.43;589.618;1.44
414;1876.51;552.019;1.44
415;1889.02;609.149;1.44
416;1930.83;587.42;1.44
417;1948.23;587.42;1.44
418;1955.55;575.701;1.44
419;1950.67;595.477;1.44
420;1921.06;585.467;1.44
421;1908.55;607.196;1.44
422;1940.6;561.785;1.44
423;1980.27;579.608;1.45
424;1994.92;613.3;1.45
425;2002.55;557.878;1.45
426;1980.27;581.561;1.45
427;1943.34;579.608;1.45
428;1923.51;595.477;1.45
429;1945.78;573.748;1.45
430;1955.55;581.561;1.45
431;1960.43;555.925;1.45
432;1950.67;603.29;1.45
433;1910.99;589.618;1.45
434;1871.62;552.019;1.45
435;1883.83;605.243;1.45
436;1928.39;591.571;1.46
437;1943.34;591.571;1.46
438;1955.55;577.654;1.46
439;1948.23;595.477;1.46
440;1918.62;583.514;1.46
441;1901.23;609.149;1.46
442;1935.71;569.842;1.46
443;1975.39;579.608;1.46
444;1990.04;617.206;1.46
445;1994.92;563.738;1.46
446;1975.39;579.608;1.46
447;1938.15;575.701;1.46
448;1921.06;593.524;1.47
449;1943.34;571.795;1.47
450;1955.55;581.561;1.47
451;1957.99;561.785;1.47
452;1945.78;609.149;1.47
453;1910.99;587.42;1.47
454;1874.07;555.925;1.47
455;1883.83;611.347;1.47
456;1925.95;591.571;1.47
457;1943.34;589.618;1.47
458;1953.11;575.701;1.47
459;1948.23;595.477;1.47
460;1918.62;583.514;1.47
461;1903.67;605.243;1.48
462;1935.71;581.561;1.48
463;1972.95;575.701;1.48
464;1992.48;613.3;1.48
465;1994.92;579.608;1.48
466;1977.83;569.842;1.48
467;1940.6;579.608;1.48
468;1921.06;593.524;1.48
469;1945.78;585.467;1.48
470;1955.55;581.561;1.48
471;1957.99;557.878;1.48
472;1948.23;593.524;1.48
473;1910.99;591.571;1.48
474;1874.07;553.972;1.49
475;1883.83;593.524;1.49
476;1925.95;599.384;1.49
477;1943.34;589.618;1.49
478;1953.11;575.701;1.49
479;1948.23;591.571;1.49
480;1921.06;587.42;1.49
481;1903.67;611.347;1.49
482;1938.15;579.608;1.49
483;1975.39;577.654;1.49
484;1992.48;615.253;1.49
485;1997.67;573.748;1.49
486;1975.39;573.748;1.49
487;1938.15;575.701;1.5
488;1918.62;595.477;1.5
489;1943.34;575.701;1.5
490;1955.55;579.608;1.5
491;1960.43;557.878;1.5
492;1950.67;597.43;1.5
493;1913.43;589.618;1.5
494;1876.51;552.019;1.5
495;1889.02;601.337;1.5
496;1930.83;593.524;1.5
497;1948.23;593.524;1.5
498;1955.55;575.701;1.5
499;1950.67;597.43;1.5
500;1923.51;583.514;1.51
501;1903.67;611.347;1.51
502;1940.6;573.748;1.51
503;1980.27;579.608;1.51
504;1994.92;615.253;1.51
505;2000.11;567.888;1.51
506;1977.83;577.654;1.51
507;1940.6;575.701;1.51
508;1923.51;595.477;1.51
509;1945.78;571.795;1.51
510;1957.99;583.514;1.51
511;1962.87;559.832;1.51
512;1950.67;605.243;1.51
513;1916.18;587.42;1.52
514;1876.51;552.019;1.52
515;1886.27;607.196;1.52
516;1928.39;593.524;1.52
517;1945.78;591.571;1.52
518;1955.55;571.795;1.52
519;1950.67;595.477;1.52
520;1923.51;585.467;1.52
521;1903.67;607.196;1.52
522;1940.6;567.888;1.52
523;1980.27;579.608;1.52
524;1994.92;615.253;1.52
525;2000.11;561.785;1.52
526;1977.83;579.608;1.53
527;1940.6;579.608;1.53
528;1923.51;595.477;1.53
529;1943.34;573.748;1.53
530;1957.99;583.514;1.53
531;1962.87;561.785;1.53
532;1950.67;589.618;1.53
533;1916.18;593.524;1.53
534;1876.51;557.878;1.53
535;1891.46;587.42;1.53
536;1930.83;605.243;1.53
537;1948.23;587.42;1.53
538;1953.11;573.748;1.53
539;1948.23;585.467;1.54
540;1923.51;585.467;1.54
541;1906.11;611.347;1.54
542;1943.34;585.467;1.54
543;1980.27;577.654;1.54
544;1997.67;615.253;1.54
545;2002.55;577.654;1.54
546;1980.27;571.795;1.54
547;1943.34;581.561;1.54
548;1923.51;593.524;1.54
549;1948.23;581.561;1.54
550;1960.43;583.514;1.54
551;1965.32;559.832;1.54
552;1953.11;595.477;1.54
553;1918.62;593.524;1.55
554;1881.39;553.972;1.55
555;1891.46;593.524;1.55
556;1933.27;599.384;1.55
557;1950.67;591.571;1.55
558;1957.99;573.748;1.55
559;1955.55;591.571;1.55
560;1923.51;587.42;1.55
561;1908.55;613.3;1.55
562;1943.34;577.654;1.55
563;1982.71;577.654;1.55
564;1997.67;615.253;1.55
565;2004.99;571.795;1.55
566;1982.71;575.701;1.55
567;1945.78;575.701;1.56
568;1928.39;593.524;1.56
569;1948.23;575.701;1.56
570;1962.87;581.561;1.56
571;1967.76;559.832;1.56
572;1955.55;597.43;1.56
573;1921.06;591.571;1.56
574;1883.83;553.972;1.56
575;1893.9;599.384;1.56
576;1933.27;595.477;1.56
577;1953.11;591.571;1.56
578;1960.43;571.795;1.56
579;1953.11;595.477;1.56
580;1930.83;585.467;1.56
581;1910.99;609.149;1.57
582;1945.78;571.795;1.57
583;1982.71;579.608;1.57
584;2000.11;615.253;1.57
585;2004.99;563.738;1.57
586;1982.71;577.654;1.57
587;1945.78;575.701;1.57
588;1923.51;593.524;1.57
589;1948.23;571.795;1.57
590;1962.87;581.561;1.57
591;1965.32;561.785;1.57
592;1955.55;605.243;1.57
593;1921.06;587.42;1.57
594;1881.39;553.972;1.57
595;1893.9;605.243;1.58
596;1935.71;591.571;1.58
597;1950.67;591.571;1.58
598;1960.43;571.795;1.58
599;1950.67;595.477;1.58
600;1923.51;585.467;1.58
601;1908.55;609.149;1.58
602;1945.78;577.654;1.58
603;1982.71;579.608;1.58
604;2000.11;615.253;1.58
605;2007.43;569.842;1.58
606;1985.15;573.748;1.58
607;1943.34;577.654;1.58
608;1925.95;591.571;1.58
609;1950.67;573.748;1.58
610;1960.43;581.561;1.59
611;1965.32;559.832;1.59
612;1953.11;599.384;1.59
613;1918.62;585.467;1.59
614;1883.83;550.066;1.59
615;1896.34;601.337;1.59
616;1935.71;591.571;1.59
617;1953.11;593.524;1.59
618;1960.43;573.748;1.59
619;1957.99;593.524;1.59
620;1928.39;583.514;1.59
621;1908.55;609.149;1.59
622;1950.67;569.842;1.59
623;1985.15;579.608;1.59
624;2002.55;615.253;1.59
625;2007.43;561.785;1.6
626;1987.59;577.654;1.6
627;1950.67;575.701;1.6
628;1933.27;595.477;1.6
629;1953.11;569.842;1.6
630;1967.76;581.561;1.6
631;1967.76;559.832;1.6
632;1960.43;605.243;1.6
633;1921.06;585.467;1.6
634;1883.83;559.832;1.6
635;1896.34;581.561;1.6
636;1938.15;605.243;1.6
637;1957.99;585.467;1.6
638;1965.32;569.842;1.6
639;1957.99;577.654;1.6
640;1930.83;585.467;1.61
641;1913.43;603.29;1.61
642;1950.67;583.514;1.61
643;1985.15;573.748;1.61
644;2002.55;607.196;1.61
645;2009.87;579.608;1.61
646;1987.59;565.935;1.61
647;1950.67;579.608;1.61
648;1930.83;589.618;1.61
649;1957.99;587.42;1.61
650;1967.76;579.608;1.61
651;1970.5;557.878;1.61
652;1957.99;587.42;1.61
653;1923.51;589.618;1.61
654;1883.83;552.019;1.61
655;1896.34;585.467;1.61
656;1938.15;597.43;1.62
657;1957.99;583.514;1.62
658;1965.32;573.748;1.62
659;1957.99;583.514;1.62
660;1933.27;585.467;1.62
661;1910.99;605.243;1.62
662;1948.23;581.561;1.62
663;1985.15;573.748;1.62
664;2000.11;613.3;1.62
665;2007.43;571.795;1.62
666;1982.71;567.888;1.62
667;1948.23;577.654;1.62
668;1930.83;593.524;1.62
669;1957.99;575.701;1.62
670;1970.5;579.608;1.62
671;1972.95;553.972;1.62
672;1962.87;595.477;1.63
673;1923.51;585.467;1.63
674;1886.27;548.112;1.63
675;1901.23;595.477;1.63
676;1943.34;591.571;1.63
677;1957.99;589.618;1.63
678;1965.32;569.842;1.63
679;1957.99;589.618;1.63
680;1933.27;583.514;1.63
681;1913.43;609.149;1.63
682;1955.55;571.795;1.63
683;1990.04;577.654;1.63
684;2007.43;615.253;1.63
685;2009.87;561.785;1.63
686;1987.59;573.748;1.63
687;1953.11;571.795;1.64
688;1933.27;591.571;1.64
689;1957.99;571.795;1.64
690;1972.95;577.654;1.64
691;1975.39;552.019;1.64
692;1962.87;599.384;1.64
693;1923.51;585.467;1.64
694;1889.02;546.159;1.64
695;1901.23;601.337;1.64
696;1940.6;585.467;1.64
697;1955.55;587.42;1.64
698;1970.5;569.842;1.64
699;1960.43;589.618;1.64
700;1933.27;581.561;1.64
701;1913.43;605.243;1.64
702;1953.11;579.608;1.64
703;1990.04;569.842;1.65
704;2007.43;601.337;1.65
705;2014.76;579.608;1.65
706;1992.48;559.832;1.65
707;1953.11;579.608;1.65
708;1935.71;591.571;1.65
709;1960.43;589.618;1.65
710;1975.39;577.654;1.65
711;1977.83;557.878;1.65
712;1962.87;585.467;1.65
713;1928.39;589.618;1.65
714;1889.02;553.972;1.65
715;1903.67;583.514;1.65
716;1940.6;601.337;1.65
717;1957.99;581.561;1.65
718;1965.32;567.888;1.66
719;1960.43;579.608;1.66
720;1930.83;583.514;1.66
721;1913.43;603.29;1.66
722;1955.55;577.654;1.66
723;1987.59;569.842;1.66
724;2004.99;607.196;1.66
725;2009.87;573.748;1.66
726;1990.04;563.738;1.66
727;1950.67;573.748;1.66
728;1933.27;591.571;1.66
729;1957.99;581.561;1.66
730;1970.5;575.701;1.66
731;1972.95;550.066;1.66
732;1962.87;589.618;1.66
733;1925.95;585.467;1.66
734;1889.02;546.159;1.67
735;1901.23;591.571;1.67
736;1943.34;595.477;1.67
737;1960.43;583.514;1.67
738;1967.76;567.888;1.67
739;1962.87;587.42;1.67
740;1938.15;579.608;1.67
741;1916.18;603.29;1.67
742;1955.55;575.701;1.67
743;1992.48;573.748;1.67
744;2007.43;609.149;1.67
745;2014.76;569.842;1.67
746;1992.48;567.888;1.67
747;1955.55;573.748;1.67
748;1935.71;587.42;1.67
749;1960.43;571.795;1.68
750;1972.95;577.654;1.68
751;1975.39;553.972;1.68
