<WeldAnalyseData xmlns:i="http:www.w3.org/2001/XMLSchema-instance">
<WeldParameter>
<TimeStamp>DT#2024-01-25-11:51:24</TimeStamp>
<Generator>SG-22-10000</Generator>
<GenFreq>20</GenFreq>
<MaxForce>8000</MaxForce>
<MaxPower>10000</MaxPower>
<RunupPressure>1.5</RunupPressure>
<RunupDist>10</RunupDist>
<RunPress>0.8</RunPress>
<ShakeDelay>0.03</ShakeDelay>
<ShakeTime>0.3</ShakeTime>
<RunBackPress1>6</RunBackPress1>
<RunBackPress2>2</RunBackPress2>
<RunBackDist>1</RunBackDist>
<TrigValue>500</TrigValue>
<TrigModeUnit>W</TrigModeUnit>
<WeldModeUnit>Ws</WeldModeUnit>
<PressNr>0</PressNr>
<MaxLoss>1500</MaxLoss>
</WeldParameter>
<WeldSets>
<WeldSet>
<PressRiseTime>0</PressRiseTime>
<RunPressure>1</RunPressure>
<Amplitude>86</Amplitude>
<WeldMode>3270</WeldMode>
</WeldSet>
</WeldSets>
<WeldValue>
<WeldNr>3009</WeldNr>
<RecipeName>RickStyle</RecipeName>
<WeldTime>1661</WeldTime>
<DistDiff>2.28</DistDiff>
<DistAbs>77.93</DistAbs>
<Energy>3270.71</Energy>
<MaxPower>2183.81</MaxPower>
<CycleTime>6030</CycleTime>
<TrigForce>502.701</TrigForce>
<TrigDist>75.65</TrigDist>
<RunSpeed>68.7727</RunSpeed>
<MaxForce>626.972</MaxForce>
<LossPower>324.812</LossPower>
</WeldValue>
</WeldAnalyseData>
#CSV-START#
ms;Power[W];Force[N];Distance[mm]
1;0;0;0
2;0;500.748;0
3;0;508.56;0
4;0;504.654;0
5;0;506.607;0
6;0;504.654;0
7;0;506.607;0
8;0;496.597;0
9;0;431.654;0.0199966
10;0;413.831;0.0400009
11;0;378.185;0.0699997
12;35.6113;360.363;0.110001
13;109.466;340.831;0.150002
14;196.139;326.914;0.189995
15;272.435;305.185;0.229996
16;334.388;317.148;0.269997
17;388.71;295.419;0.32
18;443.033;269.539;0.360001
19;516.888;312.998;0.409996
20;586.165;295.419;0.459999
21;647.813;301.279;0.5
22;717.09;295.419;0.529999
23;783.62;312.998;0.57
24;848.014;317.148;0.599998
25;926.752;342.784;0.619995
26;1003.35;321.055;0.639999
27;1070.19;350.597;0.659996
28;1134.28;386.242;0.669998
29;1183.72;350.597;0.68
30;1208.44;390.149;0.689995
31;1227.97;396.008;0.699997
32;1267.64;413.831;0.699997
33;1309.45;405.774;0.699997
34;1339.36;413.831;0.699997
35;1366.52;403.821;0.709999
36;1378.73;439.467;0.709999
37;1376.29;419.691;0.720001
38;1390.94;409.925;0.720001
39;1450.45;463.149;0.729996
40;1494.7;429.456;0.729996
41;1529.49;427.503;0.739998
42;1556.65;425.55;0.739998
43;1568.86;437.513;0.75
44;1571.3;443.373;0.75
45;1610.98;445.326;0.760002
46;1672.62;415.784;0.760002
47;1716.88;441.42;0.769997
48;1746.48;453.383;0.779999
49;1758.99;407.971;0.779999
50;1749.23;439.467;0.790001
51;1739.15;445.326;0.790001
52;1771.2;451.186;0.799995
53;1810.87;437.513;0.809998
54;1835.59;431.654;0.809998
55;1850.24;439.467;0.82
56;1840.48;469.008;0.830002
57;1813.31;439.467;0.839996
58;1823.08;445.326;0.839996
59;1882.29;490.738;0.849998
60;1919.52;459.243;0.849998
61;1944.24;453.383;0.860001
62;1956.45;459.243;0.869995
63;1946.68;470.962;0.869995
64;1926.84;482.925;0.879997
65;1958.89;477.065;0.879997
66;2018.09;453.383;0.889999
67;2048;488.784;0.889999
68;2067.53;480.972;0.900002
69;2062.65;445.326;0.900002
70;2030.61;477.065;0.909996
71;2003.44;484.878;0.909996
72;2025.72;488.784;0.919998
73;2055.33;477.065;0.919998
74;2067.53;461.196;0.93
75;2069.98;475.112;0.93
76;2045.26;506.607;0.93
77;2001;480.972;0.939995
78;1996.12;469.008;0.939995
79;2045.26;526.383;0.949997
80;2077.6;490.738;0.949997
81;2094.7;488.784;0.959999
82;2097.14;488.784;0.959999
83;2075.16;500.748;0.970001
84;2050.44;504.654;0.970001
85;2075.16;506.607;0.970001
86;2126.74;477.065;0.979996
87;2153.9;510.514;0.979996
88;2166.41;512.467;0.989998
89;2151.46;469.008;0.989998
90;2112.09;502.701;0.989998
91;2082.49;508.56;1
92;2094.7;512.467;1
93;2121.86;500.748;1
94;2134.37;492.691;1.01
95;2129.49;502.701;1.01
96;2097.14;526.383;1.01
97;2052.88;496.597;1.02
98;2040.37;500.748;1.02
99;2087.37;546.159;1.02
100;2114.53;512.467;1.02
101;2129.49;506.607;1.03
102;2126.74;508.56;1.03
103;2104.77;518.326;1.03
104;2075.16;532.243;1.04
105;2099.58;520.524;1.04
106;2146.58;494.644;1.04
107;2173.74;538.102;1.05
108;2183.81;520.524;1.05
109;2166.41;486.831;1.05
110;2124.3;514.42;1.06
111;2089.81;508.56;1.06
112;2102.32;524.43;1.06
113;2126.74;506.607;1.06
114;2134.37;516.373;1.07
115;2129.49;500.748;1.07
116;2097.14;544.206;1.07
117;2050.44;522.477;1.08
118;2037.93;496.597;1.08
119;2082.49;553.972;1.08
120;2107.21;524.43;1.08
121;2119.42;524.43;1.09
122;2116.97;516.373;1.09
123;2087.37;532.243;1.09
124;2060.21;524.43;1.09
125;2082.49;542.009;1.1
126;2129.49;500.748;1.1
127;2153.9;526.383;1.1
128;2163.97;548.112;1.1
129;2149.02;490.738;1.11
130;2107.21;524.43;1.11
131;2075.16;528.336;1.11
132;2087.37;536.149;1.11
133;2109.65;520.524;1.12
134;2114.53;522.477;1.12
135;2107.21;516.373;1.12
136;2072.42;555.925;1.12
137;2025.72;524.43;1.13
138;2013.21;512.467;1.13
139;2057.77;569.842;1.13
140;2082.49;530.29;1.13
141;2094.7;530.29;1.14
142;2089.81;526.383;1.14
143;2065.09;540.056;1.14
144;2033.05;538.102;1.14
145;2052.88;544.206;1.14
146;2102.32;512.467;1.15
147;2121.86;538.102;1.15
148;2134.37;550.066;1.15
149;2116.97;498.795;1.15
150;2075.16;532.243;1.16
151;2045.26;540.056;1.16
152;2057.77;542.009;1.16
153;2077.6;530.29;1.16
154;2084.93;524.43;1.16
155;2080.05;528.336;1.17
156;2045.26;557.878;1.17
157;1998.56;524.43;1.17
158;1990.93;522.477;1.17
159;2033.05;571.795;1.17
160;2057.77;536.149;1.18
161;2069.98;530.29;1.18
162;2067.53;532.243;1.18
163;2040.37;544.206;1.18
164;2010.77;552.019;1.18
165;2033.05;548.112;1.18999
166;2077.6;520.524;1.18999
167;2102.32;553.972;1.18999
168;2112.09;552.019;1.18999
169;2094.7;510.514;1.18999
170;2057.77;540.056;1.18999
171;2025.72;546.159;1.2
172;2037.93;548.112;1.2
173;2055.33;538.102;1.2
174;2062.65;524.43;1.2
175;2057.77;540.056;1.2
176;2023.28;559.832;1.2
177;1978.72;528.336;1.21
178;1968.96;514.42;1.21
179;2010.77;571.795;1.21
180;2037.93;548.112;1.21
181;2050.44;548.112;1.21
182;2042.81;536.149;1.22
183;2018.09;553.972;1.22
184;1988.49;544.206;1.22
185;2010.77;567.888;1.22
186;2057.77;522.477;1.22
187;2077.6;544.206;1.22
188;2087.37;571.795;1.23
189;2072.42;516.373;1.23
190;2033.05;544.206;1.23
191;2001;542.009;1.23
192;2015.65;555.925;1.23
193;2035.49;534.196;1.23
194;2040.37;542.009;1.23
195;2033.05;530.29;1.24
196;2003.44;571.795;1.24
197;1954;548.112;1.24
198;1949.12;522.477;1.24
199;1988.49;581.561;1.24
200;2008.33;550.066;1.24
201;2023.28;550.066;1.25
202;2028.16;542.009;1.25
203;2013.21;557.878;1.25
204;1981.17;552.019;1.25
205;1981.17;567.888;1.25
206;2025.72;528.336;1.25
207;2055.33;552.019;1.25
208;2069.98;573.748;1.26
209;2067.53;514.42;1.26
210;2035.49;550.066;1.26
211;1998.56;552.019;1.26
212;1990.93;559.832;1.26
213;2015.65;544.206;1.26
214;2028.16;546.159;1.26
215;2025.72;540.056;1.27
216;2003.44;577.654;1.27
217;1963.77;548.112;1.27
218;1929.28;536.149;1.27
219;1958.89;591.571;1.27
220;1998.56;553.972;1.27
221;2013.21;552.019;1.27
222;2018.09;548.112;1.28
223;2001;561.785;1.28
224;1973.84;561.785;1.28
225;1968.96;567.888;1.28
226;2015.65;532.243;1.28
227;2042.81;563.738;1.28
228;2055.33;569.842;1.28
229;2055.33;522.477;1.29
230;2023.28;553.972;1.29
231;1983.61;559.832;1.29
232;1981.17;563.738;1.29
233;2005.89;550.066;1.29
234;2010.77;542.009;1.29
235;2013.21;548.112;1.29
236;1993.68;577.654;1.29
237;1951.56;546.159;1.3
238;1914.64;546.159;1.3
239;1944.24;589.618;1.3
240;1981.17;555.925;1.3
241;1996.12;553.972;1.3
242;2001;553.972;1.3
243;1986.05;563.738;1.3
244;1956.45;571.795;1.31
245;1949.12;565.935;1.31
246;2001;540.056;1.31
247;2028.16;561.785;1.31
248;2042.81;579.608;1.31
249;2042.81;524.43;1.31
250;2010.77;557.878;1.31
251;1971.4;559.832;1.31
252;1966.52;567.888;1.32
253;1990.93;553.972;1.32
254;1998.56;553.972;1.32
255;1998.56;550.066;1.32
256;1981.17;585.467;1.32
257;1939.36;557.878;1.32
258;1907.01;544.206;1.32
259;1936.61;599.384;1.32
260;1971.4;561.785;1.33
261;1988.49;557.878;1.33
262;1993.68;555.925;1.33
263;1978.72;569.842;1.33
264;1946.68;571.795;1.33
265;1944.24;573.748;1.33
266;1990.93;544.206;1.33
267;2018.09;567.888;1.33
268;2035.49;579.608;1.34
269;2033.05;530.29;1.34
270;2003.44;565.935;1.34
271;1963.77;569.842;1.34
272;1961.33;573.748;1.34
273;1986.05;557.878;1.34
274;1993.68;552.019;1.34
275;1996.12;559.832;1.34
276;1973.84;587.42;1.34
277;1931.73;553.972;1.35
278;1902.12;555.925;1.35
279;1929.28;605.243;1.35
280;1968.96;569.842;1.35
281;1983.61;575.701;1.35
282;1990.93;559.832;1.35
283;1971.4;581.561;1.35
284;1944.24;567.888;1.35
285;1944.24;593.524;1.36
286;1988.49;550.066;1.36
287;2018.09;567.888;1.36
288;2030.61;599.384;1.36
289;2028.16;546.159;1.36
290;1993.68;569.842;1.36
291;1958.89;565.935;1.36
292;1951.56;579.608;1.36
293;1978.72;561.785;1.36
294;1988.49;571.795;1.37
295;1990.93;553.972;1.37
296;1971.4;599.384;1.37
297;1931.73;573.748;1.37
298;1902.12;548.112;1.37
299;1926.84;601.337;1.37
300;1961.33;575.701;1.37
301;1978.72;577.654;1.37
302;1978.72;567.888;1.38
303;1966.52;585.467;1.38
304;1934.17;577.654;1.38
305;1931.73;595.477;1.38
306;1983.61;552.019;1.38
307;2010.77;573.748;1.38
308;2028.16;603.29;1.38
309;2023.28;542.009;1.38
310;1993.68;571.795;1.38
311;1956.45;573.748;1.39
312;1954;583.514;1.39
313;1978.72;567.888;1.39
314;1986.05;575.701;1.39
315;1986.05;563.738;1.39
316;1963.77;601.337;1.39
317;1924.4;575.701;1.39
318;1894.8;555.925;1.39
319;1924.4;615.253;1.39
320;1958.89;581.561;1.4
321;1976.28;579.608;1.4
322;1978.72;573.748;1.4
323;1963.77;587.42;1.4
324;1936.61;585.467;1.4
325;1934.17;597.43;1.4
326;1978.72;557.878;1.4
327;2013.21;585.467;1.4
328;2030.61;601.337;1.4
329;2028.16;542.009;1.41
330;1996.12;577.654;1.41
331;1956.45;581.561;1.41
332;1954;587.42;1.41
333;1981.17;573.748;1.41
334;1986.05;575.701;1.41
335;1988.49;571.795;1.41
336;1966.52;605.243;1.41
337;1929.28;575.701;1.41
338;1897.24;565.935;1.41
339;1929.28;619.16;1.42
340;1963.77;583.514;1.42
341;1981.17;577.654;1.42
342;1986.05;575.701;1.42
343;1971.4;589.618;1.42
344;1939.36;593.524;1.42
345;1936.61;595.477;1.42
346;1983.61;563.738;1.42
347;2013.21;591.571;1.42
348;2028.16;597.43;1.42
349;2025.72;552.019;1.43
350;1993.68;577.654;1.43
351;1958.89;575.701;1.43
352;1956.45;591.571;1.43
353;1981.17;571.795;1.43
354;1988.49;581.561;1.43
355;1988.49;559.832;1.43
356;1968.96;607.196;1.43
357;1929.28;585.467;1.43
358;1897.24;553.972;1.43
359;1926.84;611.347;1.43999
360;1963.77;589.618;1.43999
361;1978.72;587.42;1.43999
362;1981.17;577.654;1.43999
363;1968.96;595.477;1.43999
364;1939.36;583.514;1.43999
365;1936.61;607.196;1.43999
366;1983.61;561.785;1.43999
367;2015.65;581.561;1.43999
368;2025.72;613.3;1.43999
369;2023.28;557.878;1.45
370;1996.12;579.608;1.45
371;1954;579.608;1.45
372;1954;591.571;1.45
373;1976.28;573.748;1.45
374;1983.61;581.561;1.45
375;1983.61;567.888;1.45
376;1966.52;613.3;1.45
377;1921.96;585.467;1.45
378;1892.36;559.832;1.45
379;1926.84;617.206;1.45
380;1966.52;589.618;1.46
381;1981.17;587.42;1.46
382;1986.05;577.654;1.46
383;1968.96;595.477;1.46
384;1939.36;585.467;1.46
385;1936.61;601.337;1.46
386;1983.61;559.832;1.46
387;2010.77;587.42;1.46
388;2025.72;609.149;1.46
389;2023.28;552.019;1.46
390;1993.68;583.514;1.47
391;1954;585.467;1.47
392;1951.56;591.571;1.47
393;1976.28;575.701;1.47
394;1986.05;579.608;1.47
395;1986.05;571.795;1.47
396;1963.77;609.149;1.47
397;1921.96;583.514;1.47
398;1892.36;563.738;1.47
399;1924.4;625.019;1.47
400;1961.33;587.42;1.47
401;1976.28;585.467;1.48
402;1983.61;577.654;1.48
403;1966.52;593.524;1.48
404;1936.61;589.618;1.48
405;1936.61;599.384;1.48
406;1983.61;563.738;1.48
407;2013.21;593.524;1.48
408;2028.16;603.29;1.48
409;2023.28;550.066;1.48
410;1993.68;583.514;1.48
411;1954;587.42;1.48
412;1951.56;593.524;1.49
413;1978.72;577.654;1.49
414;1986.05;575.701;1.49
415;1988.49;575.701;1.49
416;1966.52;607.196;1.49
417;1924.4;575.701;1.49
418;1899.68;571.795;1.49
419;1926.84;621.113;1.49
420;1961.33;589.618;1.49
421;1976.28;585.467;1.49
422;1983.61;575.701;1.49
423;1963.77;595.477;1.49
424;1936.61;587.42;1.5
425;1934.17;605.243;1.5
426;1986.05;559.832;1.5
427;2010.77;587.42;1.5
428;2025.72;609.149;1.5
429;2023.28;550.066;1.5
430;1990.93;583.514;1.5
431;1954;585.467;1.5
432;1954;591.571;1.5
433;1978.72;577.654;1.5
434;1986.05;579.608;1.5
435;1986.05;571.795;1.5
436;1966.52;609.149;1.51
437;1926.84;579.608;1.51
438;1897.24;567.888;1.51
439;1929.28;623.066;1.51
440;1963.77;583.514;1.51
441;1981.17;581.561;1.51
442;1986.05;577.654;1.51
443;1971.4;589.618;1.51
444;1941.8;591.571;1.51
445;1939.36;593.524;1.51
446;1986.05;563.738;1.51
447;2015.65;593.524;1.52
448;2028.16;601.337;1.52
449;2028.16;552.019;1.52
450;1996.12;585.467;1.52
451;1958.89;587.42;1.52
452;1956.45;591.571;1.52
453;1978.72;573.748;1.52
454;1988.49;583.514;1.52
455;1988.49;563.738;1.52
456;1968.96;607.196;1.52
457;1929.28;589.618;1.52
458;1899.68;552.019;1.52
459;1931.73;609.149;1.52
460;1966.52;591.571;1.53
461;1981.17;591.571;1.53
462;1988.49;575.701;1.53
463;1968.96;597.43;1.53
464;1939.36;581.561;1.53
465;1939.36;609.149;1.53
466;1988.49;565.935;1.53
467;2015.65;583.514;1.53
468;2030.61;615.253;1.53
469;2028.16;557.878;1.53
470;1996.12;581.561;1.53
471;1958.89;577.654;1.53
472;1954;595.477;1.53
473;1978.72;571.795;1.54
474;1986.05;583.514;1.54
475;1988.49;565.935;1.54
476;1966.52;611.347;1.54
477;1926.84;589.618;1.54
478;1897.24;555.925;1.54
479;1926.84;615.253;1.54
480;1958.89;589.618;1.54
481;1976.28;591.571;1.54
482;1981.17;577.654;1.54
483;1961.33;595.477;1.54
484;1934.17;585.467;1.54
485;1931.73;605.243;1.55
486;1981.17;559.832;1.55
487;2010.77;583.514;1.55
488;2023.28;611.347;1.55
489;2023.28;552.019;1.55
490;1988.49;583.514;1.55
491;1954;581.561;1.55
492;1951.56;593.524;1.55
493;1973.84;573.748;1.55
494;1983.61;581.561;1.55
495;1983.61;569.842;1.55
496;1963.77;611.347;1.55
497;1924.4;585.467;1.55
498;1897.24;561.785;1.55
499;1929.28;621.113;1.56
500;1963.77;587.42;1.56
501;1976.28;583.514;1.56
502;1983.61;577.654;1.56
503;1966.52;595.477;1.56
504;1936.61;587.42;1.56
505;1936.61;603.29;1.56
506;1983.61;563.738;1.56
507;2010.77;587.42;1.56
508;2028.16;605.243;1.56
509;2023.28;552.019;1.56
510;1993.68;585.467;1.56
511;1956.45;585.467;1.56
512;1954;591.571;1.57
513;1978.72;577.654;1.57
514;1983.61;577.654;1.57
515;1986.05;573.748;1.57
516;1968.96;611.347;1.57
517;1926.84;579.608;1.57
518;1897.24;571.795;1.57
519;1929.28;626.972;1.57
520;1963.77;587.42;1.57
521;1978.72;585.467;1.57
522;1981.17;575.701;1.57
523;1966.52;599.384;1.57
524;1936.61;585.467;1.57
525;1939.36;613.3;1.58
526;1983.61;573.748;1.58
527;2013.21;583.514;1.58
528;2028.16;621.113;1.58
529;2023.28;565.935;1.58
530;1990.93;579.608;1.58
531;1954;577.654;1.58
532;1951.56;595.477;1.58
533;1978.72;573.748;1.58
534;1986.05;583.514;1.58
535;1986.05;563.738;1.58
536;1966.52;609.149;1.58
537;1926.84;591.571;1.58
538;1897.24;552.019;1.58
539;1931.73;613.3;1.59
540;1966.52;593.524;1.59
541;1978.72;591.571;1.59
542;1986.05;575.701;1.59
543;1971.4;597.43;1.59
544;1939.36;585.467;1.59
545;1939.36;609.149;1.59
546;1983.61;563.738;1.59
547;2015.65;583.514;1.59
548;2028.16;615.253;1.59
549;2023.28;559.832;1.59
550;1990.93;583.514;1.59
551;1956.45;579.608;1.59
552;1956.45;593.524;1.59
553;1981.17;573.748;1.6
554;1990.93;585.467;1.6
555;1993.68;569.842;1.6
556;1968.96;613.3;1.6
557;1929.28;589.618;1.6
558;1899.68;559.832;1.6
559;1934.17;617.206;1.6
560;1968.96;591.571;1.6
561;1981.17;587.42;1.6
562;1986.05;579.608;1.6
563;1971.4;595.477;1.6
564;1941.8;589.618;1.6
565;1939.36;605.243;1.6
566;1986.05;561.785;1.6
567;2013.21;587.42;1.61
568;2028.16;609.149;1.61
569;2025.72;553.972;1.61
570;1993.68;587.42;1.61
571;1956.45;583.514;1.61
572;1954;593.524;1.61
573;1981.17;577.654;1.61
574;1990.93;579.608;1.61
575;1988.49;573.748;1.61
576;1968.96;611.347;1.61
577;1926.84;585.467;1.61
578;1899.68;565.935;1.61
579;1931.73;621.113;1.61
580;1966.52;587.42;1.61
581;1978.72;583.514;1.61
582;1983.61;577.654;1.62
583;1966.52;595.477;1.62
584;1936.61;593.524;1.62
585;1936.61;599.384;1.62
586;1986.05;563.738;1.62
587;2013.21;591.571;1.62
588;2028.16;603.29;1.62
589;2023.28;552.019;1.62
590;1993.68;583.514;1.62
591;1954;579.608;1.62
592;1954;593.524;1.62
593;1978.72;573.748;1.62
594;1986.05;583.514;1.62
595;1986.05;569.842;1.62
596;1966.52;613.3;1.63
597;1924.4;587.42;1.63
598;1897.24;557.878;1.63
599;1931.73;619.16;1.63
600;1961.33;589.618;1.63
601;1981.17;587.42;1.63
602;1983.61;579.608;1.63
603;1968.96;595.477;1.63
604;1936.61;585.467;1.63
605;1936.61;603.29;1.63
606;1983.61;559.832;1.63
607;2013.21;587.42;1.63
608;2028.16;609.149;1.63
609;2020.84;553.972;1.63
610;1990.93;581.561;1.63
611;1954;585.467;1.64
612;1956.45;591.571;1.64
613;1981.17;577.654;1.64
614;1988.49;577.654;1.64
615;1988.49;571.795;1.64
616;1968.96;611.347;1.64
617;1926.84;583.514;1.64
618;1899.68;563.738;1.64
619;1931.73;623.066;1.64
620;1963.77;583.514;1.64
621;1978.72;583.514;1.64
622;1986.05;579.608;1.64
623;1968.96;591.571;1.64
624;1939.36;591.571;1.64
625;1939.36;613.3;1.64
626;1988.49;575.701;1.65
627;2013.21;579.608;1.65
628;2025.72;617.206;1.65
629;2023.28;563.738;1.65
630;1990.93;577.654;1.65
631;1956.45;571.795;1.65
632;1956.45;593.524;1.65
633;1981.17;573.748;1.65
634;1988.49;579.608;1.65
635;1990.93;559.832;1.65
636;1968.96;601.337;1.65
637;1929.28;589.618;1.65
638;1902.12;550.066;1.65
639;1934.17;605.243;1.65
640;1966.52;591.571;1.66
641;1978.72;591.571;1.66
642;1986.05;575.701;1.66
643;1968.96;595.477;1.66
644;1939.36;583.514;1.66
645;1941.8;609.149;1.66
646;1988.49;565.935;1.66
647;2018.09;579.608;1.66
648;2030.61;615.253;1.66
649;2025.72;559.832;1.66
650;1993.68;579.608;1.66
651;1958.89;575.701;1.66
652;1956.45;591.571;1.66
653;1986.05;569.842;1.66
654;1993.68;579.608;1.66
655;1990.93;563.738;1.67
656;1968.96;611.347;1.67
657;1924.4;587.42;1.67
658;1902.12;555.925;1.67
659;1936.61;609.149;1.67
660;1971.4;587.42;1.67
661;1983.61;585.467;1.67
662;1988.49;577.654;1.67
663;1973.84;595.477;1.67
664;1939.36;585.467;1.67
665;1941.8;605.243;1.67
666;1990.93;559.832;1.67
667;2013.21;581.561;1.67
668;2028.16;609.149;1.67
669;2023.28;552.019;1.67
670;1993.68;581.561;1.67
671;1956.45;577.654;1.68
672;1956.45;591.571;1.68
673;1983.61;571.795;1.68
674;1988.49;577.654;1.68
675;1990.93;569.842;1.68
676;1968.96;609.149;1.68
677;1929.28;585.467;1.68
678;1904.56;557.878;1.68
679;1939.36;619.16;1.68
680;1971.4;583.514;1.68
681;1983.61;585.467;1.68
682;1990.93;575.701;1.68
683;1971.4;589.618;1.68
684;1944.24;585.467;1.68
685;1941.8;601.337;1.68
686;1990.93;559.832;1.68999
687;2018.09;585.467;1.68999
688;2030.61;605.243;1.68999
689;2028.16;548.112;1.68999
690;1996.12;581.561;1.68999
691;1958.89;583.514;1.68999
692;1961.33;589.618;1.68999
693;1983.61;575.701;1.68999
694;1993.68;579.608;1.68999
695;1990.93;555.925;1.68999
696;1968.96;595.477;1.68999
697;1929.28;589.618;1.68999
698;1904.56;548.112;1.68999
699;1936.61;599.384;1.68999
700;1971.4;589.618;1.68999
701;1983.61;589.618;1.68999
702;1986.05;571.795;1.7
703;1973.84;593.524;1.7
704;1941.8;581.561;1.7
705;1941.8;609.149;1.7
706;1988.49;569.842;1.7
707;2013.21;577.654;1.7
708;2030.61;615.253;1.7
709;2025.72;559.832;1.7
710;1996.12;577.654;1.7
711;1954;573.748;1.7
712;1956.45;589.618;1.7
713;1981.17;571.795;1.7
714;1988.49;579.608;1.7
715;1988.49;557.878;1.7
716;1968.96;605.243;1.7
717;1926.84;583.514;1.7
718;1899.68;550.066;1.71
719;1934.17;605.243;1.71
720;1968.96;587.42;1.71
721;1978.72;587.42;1.71
722;1988.49;573.748;1.71
723;1968.96;591.571;1.71
724;1941.8;581.561;1.71
725;1941.8;603.29;1.71
726;1990.93;565.935;1.71
727;2018.09;579.608;1.71
728;2030.61;611.347;1.71
729;2025.72;557.878;1.71
730;1996.12;577.654;1.71
731;1961.33;573.748;1.71
732;1958.89;589.618;1.71
733;1983.61;569.842;1.71
734;1990.93;579.608;1.72
735;1988.49;563.738;1.72
736;1966.52;607.196;1.72
737;1926.84;583.514;1.72
738;1904.56;553.972;1.72
739;1936.61;611.347;1.72
740;1966.52;585.467;1.72
741;1981.17;583.514;1.72
742;1983.61;573.748;1.72
743;1966.52;591.571;1.72
744;1936.61;581.561;1.72
745;1939.36;599.384;1.72
746;1990.93;557.878;1.72
747;2020.84;579.608;1.72
748;2033.05;605.243;1.72
749;2028.16;550.066;1.72
750;1996.12;579.608;1.72
751;1961.33;575.701;1.73
752;1961.33;589.618;1.73
753;1983.61;573.748;1.73
754;1993.68;579.608;1.73
