<WeldAnalyseData xmlns:i="http:www.w3.org/2001/XMLSchema-instance">
<WeldParameter>
<TimeStamp>DT#2024-01-25-14:43:43</TimeStamp>
<Generator>SG-22-10000</Generator>
<GenFreq>20</GenFreq>
<MaxForce>8000</MaxForce>
<MaxPower>10000</MaxPower>
<RunupPressure>1.5</RunupPressure>
<RunupDist>10</RunupDist>
<RunPress>0.8</RunPress>
<ShakeDelay>0.03</ShakeDelay>
<ShakeTime>0.3</ShakeTime>
<RunBackPress1>6</RunBackPress1>
<RunBackPress2>2</RunBackPress2>
<RunBackDist>1</RunBackDist>
<TrigValue>500</TrigValue>
<TrigModeUnit>W</TrigModeUnit>
<WeldModeUnit>Ws</WeldModeUnit>
<PressNr>0</PressNr>
<MaxLoss>1500</MaxLoss>
</WeldParameter>
<WeldSets>
<WeldSet>
<PressRiseTime>0</PressRiseTime>
<RunPressure>1</RunPressure>
<Amplitude>86</Amplitude>
<WeldMode>3270</WeldMode>
</WeldSet>
</WeldSets>
<WeldValue>
<WeldNr>3032</WeldNr>
<RecipeName>RickStyle</RecipeName>
<WeldTime>1671</WeldTime>
<DistDiff>2.31</DistDiff>
<DistAbs>78</DistAbs>
<Energy>3271.81</Energy>
<MaxPower>2188.83</MaxPower>
<CycleTime>6060</CycleTime>
<TrigForce>500.748</TrigForce>
<TrigDist>75.69</TrigDist>
<RunSpeed>67.5201</RunSpeed>
<MaxForce>628.925</MaxForce>
<LossPower>324.679</LossPower>
</WeldValue>
</WeldAnalyseData>
#CSV-START#
ms;Power[W];Force[N];Distance[mm]
1;0;0;0
2;0;498.795;0
3;0;498.795;0
4;0;500.748;0
5;0;500.748;0
6;0;502.701;0
7;0;498.795;0
8;0;477.065;0.00999451
9;0;425.55;0.0199966
10;0;405.774;0.0400009
11;0;366.466;0.0699997
12;25.6737;368.419;0.110001
13;92.5092;340.831;0.139999
14;176.435;328.867;0.18
15;255.478;307.138;0.220001
16;319.567;305.185;0.259995
17;376.331;299.326;0.309998
18;443.167;311.045;0.349998
19;517.022;289.315;0.399994
20;588.74;311.045;0.439995
21;655.271;332.774;0.470001
22;722.106;297.372;0.5
23;783.753;326.914;0.529999
24;833.193;332.774;0.549995
25;894.841;350.597;0.57
26;961.676;350.597;0.589996
27;1018.44;358.409;0.599998
28;1072.76;360.363;0.619995
29;1109.69;397.961;0.629997
30;1129.53;388.195;0.639999
31;1154.25;380.139;0.639999
32;1211.01;431.654;0.649994
33;1255.26;403.821;0.649994
34;1292.5;405.774;0.659996
35;1329.42;399.915;0.659996
36;1354.14;409.925;0.669998
37;1363.91;409.925;0.68
38;1396.26;433.607;0.689995
39;1450.58;394.055;0.689995
40;1492.39;411.878;0.699997
41;1529.63;445.326;0.709999
42;1554.04;392.102;0.709999
43;1551.6;415.784;0.720001
44;1544.27;411.878;0.729996
45;1566.55;429.456;0.729996
46;1605.92;407.971;0.739998
47;1635.53;419.691;0.75
48;1657.8;401.868;0.759995
49;1660.24;447.279;0.759995
50;1645.6;427.503;0.769997
51;1645.6;396.008;0.779999
52;1697.48;461.196;0.790001
53;1746.61;433.607;0.790001
54;1776.52;435.56;0.799995
55;1800.94;423.597;0.809998
56;1806.12;445.326;0.82
57;1798.49;439.467;0.829994
58;1815.89;465.102;0.829994
59;1875.1;419.691;0.839996
60;1917.21;447.279;0.839996
61;1944.37;480.972;0.849998
62;1951.7;415.784;0.860001
63;1929.42;453.383;0.860001
64;1904.7;453.383;0.869995
65;1917.21;469.008;0.869995
66;1959.02;451.186;0.879997
67;1978.86;461.196;0.879997
68;1991.07;445.326;0.889999
69;1978.86;492.691;0.889999
70;1946.81;467.055;0.899994
71;1926.98;447.279;0.899994
72;1978.86;514.42;0.899994
73;2020.97;475.112;0.909996
74;2040.51;475.112;0.909996
75;2053.02;467.055;0.919998
76;2042.95;486.831;0.919998
77;2015.79;484.878;0.93
78;2028.3;498.795;0.93
79;2080.18;455.336;0.93
80;2112.22;490.738;0.939995
81;2132.06;508.56;0.939995
82;2129.62;453.383;0.949997
83;2097.27;484.878;0.949997
84;2062.78;490.738;0.949997
85;2072.55;502.701;0.959999
86;2102.46;482.925;0.959999
87;2117.11;482.925;0.959999
88;2121.99;482.925;0.970001
89;2099.71;518.326;0.970001
90;2055.46;488.784;0.979996
91;2033.18;480.972;0.979996
92;2077.74;538.102;0.979996
93;2114.67;500.748;0.989998
94;2132.06;496.597;0.989998
95;2136.94;494.644;0.989998
96;2114.67;508.56;1
97;2082.62;514.42;1
98;2089.95;518.326;1
99;2141.83;482.925;1.00999
100;2171.43;500.748;1.00999
101;2188.83;538.102;1.00999
102;2181.2;479.019;1.02
103;2141.83;502.701;1.02
104;2102.46;502.701;1.02
105;2107.34;518.326;1.03
106;2134.5;494.644;1.03
107;2144.27;508.56;1.03
108;2141.83;486.831;1.03
109;2114.67;538.102;1.04
110;2067.67;512.467;1.04
111;2042.95;480.972;1.04
112;2082.62;544.206;1.05
113;2114.67;516.373;1.05
114;2129.62;518.326;1.05
115;2132.06;502.701;1.06
116;2107.34;524.43;1.06
117;2072.55;514.42;1.06
118;2075.3;538.102;1.06
119;2119.55;488.784;1.07
120;2149.15;516.373;1.07
121;2156.78;546.159;1.07
122;2149.15;484.878;1.07
123;2109.78;516.373;1.07999
124;2075.3;516.373;1.07999
125;2082.62;528.336;1.07999
126;2117.11;510.514;1.09
127;2134.5;518.326;1.09
128;2134.5;502.701;1.09
129;2104.9;550.066;1.09
130;2060.34;518.326;1.09
131;2030.74;498.795;1.1
132;2070.11;565.935;1.1
133;2099.71;524.43;1.1
134;2112.22;522.477;1.11
135;2109.78;514.42;1.11
136;2085.06;530.29;1.11
137;2053.02;526.383;1.11
138;2050.58;546.159;1.12
139;2097.27;500.748;1.12
140;2119.55;530.29;1.12
141;2126.87;546.159;1.12
142;2117.11;486.831;1.13
143;2075.3;524.43;1.13
144;2038.06;524.43;1.13
145;2040.51;536.149;1.13
146;2065.23;518.326;1.13
147;2075.3;518.326;1.14
148;2070.11;514.42;1.14
149;2045.39;552.019;1.14
150;2001.14;522.477;1.14
151;1978.86;510.514;1.14
152;2020.97;569.842;1.14999
153;2050.58;530.29;1.14999
154;2062.78;526.383;1.14999
155;2062.78;524.43;1.14999
156;2040.51;536.149;1.14999
157;2008.46;542.009;1.16
158;2015.79;546.159;1.16
159;2062.78;514.42;1.16
160;2085.06;532.243;1.16
161;2097.27;557.878;1.16
162;2085.06;494.644;1.17
163;2048.14;532.243;1.17
164;2008.46;530.29;1.17
165;2015.79;546.159;1.17
166;2040.51;526.383;1.17
167;2048.14;530.29;1.17
168;2048.14;520.524;1.18
169;2020.97;561.785;1.18
170;1978.86;536.149;1.18
171;1956.58;516.373;1.18
172;1998.7;579.608;1.18
173;2025.86;536.149;1.18999
174;2038.06;536.149;1.18999
175;2038.06;530.29;1.18999
176;2013.34;546.159;1.18999
177;1983.74;546.159;1.18999
178;1991.07;555.925;1.18999
179;2035.62;518.326;1.2
180;2057.9;546.159;1.2
181;2067.67;561.785;1.2
182;2057.9;504.654;1.2
183;2018.23;538.102;1.2
184;1983.74;542.009;1.2
185;1988.62;550.066;1.2
186;2010.9;532.243;1.21
187;2020.97;534.196;1.21
188;2015.79;530.29;1.21
189;1991.07;561.785;1.21
190;1949.26;532.243;1.21
191;1926.98;510.514;1.21
192;1973.98;565.935;1.22
193;2003.58;546.159;1.22
194;2013.34;548.112;1.22
195;2015.79;530.29;1.22
196;1993.81;555.925;1.22
197;1959.02;544.206;1.22
198;1971.53;567.888;1.22
199;2018.23;522.477;1.23
200;2038.06;542.009;1.23
201;2048.14;575.701;1.23
202;2038.06;518.326;1.23
203;1998.7;542.009;1.23
204;1963.9;538.102;1.23
205;1973.98;557.878;1.23
206;2001.14;536.149;1.24
207;2008.46;546.159;1.24
208;2008.46;522.477;1.24
209;1981.3;577.654;1.24
210;1939.49;550.066;1.24
211;1922.09;520.524;1.24
212;1966.65;581.561;1.24
213;1988.62;550.066;1.25
214;2003.58;552.019;1.25
215;2006.02;538.102;1.25
216;1983.74;557.878;1.25
217;1951.7;548.112;1.25
218;1959.02;573.748;1.25
219;2008.46;524.43;1.25
220;2028.3;550.066;1.25999
221;2038.06;579.608;1.25999
222;2025.86;514.42;1.25999
223;1988.62;548.112;1.25999
224;1956.58;546.159;1.25999
225;1961.46;561.785;1.25999
226;1988.62;542.009;1.25999
227;1996.25;548.112;1.27
228;1991.07;530.29;1.27
229;1961.46;577.654;1.27
230;1924.54;550.066;1.27
231;1904.7;528.336;1.27
232;1949.26;595.477;1.27
233;1971.53;553.972;1.27
234;1988.62;552.019;1.28
235;1988.62;542.009;1.28
236;1969.09;559.832;1.28
237;1939.49;555.925;1.28
238;1946.81;571.795;1.28
239;1993.81;528.336;1.28
240;2015.79;557.878;1.28
241;2025.86;579.608;1.28
242;2010.9;516.373;1.29
243;1976.42;553.972;1.29
244;1941.93;553.972;1.29
245;1951.7;565.935;1.29
246;1973.98;548.112;1.29
247;1978.86;546.159;1.29
248;1976.42;542.009;1.29
249;1954.14;577.654;1.29
250;1912.33;552.019;1.3
251;1897.37;538.102;1.3
252;1936.74;595.477;1.3
253;1969.09;561.785;1.3
254;1978.86;565.935;1.3
255;1981.3;546.159;1.3
256;1966.65;571.795;1.3
257;1936.74;555.925;1.3
258;1936.74;585.467;1.31
259;1981.3;538.102;1.31
260;2006.02;555.925;1.31
261;2018.23;591.571;1.31
262;2008.46;534.196;1.31
263;1976.42;553.972;1.31
264;1939.49;552.019;1.31
265;1941.93;571.795;1.31
266;1966.65;550.066;1.32
267;1978.86;561.785;1.32
268;1976.42;536.149;1.32
269;1956.58;585.467;1.32
270;1914.77;565.935;1.32
271;1890.05;532.243;1.32
272;1922.09;593.524;1.32
273;1956.58;565.935;1.32
274;1969.09;567.888;1.32999
275;1973.98;553.972;1.32999
276;1956.58;575.701;1.32999
277;1926.98;563.738;1.32999
278;1926.98;587.42;1.32999
279;1973.98;540.056;1.32999
280;1998.7;563.738;1.32999
281;2006.02;595.477;1.32999
282;2001.14;528.336;1.34
283;1971.53;563.738;1.34
284;1929.42;561.785;1.34
285;1931.86;577.654;1.34
286;1956.58;555.925;1.34
287;1966.65;563.738;1.34
288;1963.9;550.066;1.34
289;1946.81;593.524;1.34
290;1907.14;569.842;1.35
291;1882.42;540.056;1.35
292;1917.21;609.149;1.35
293;1951.7;569.842;1.35
294;1963.9;571.795;1.35
295;1971.53;559.832;1.35
296;1951.7;577.654;1.35
297;1922.09;569.842;1.35
298;1924.54;589.618;1.36
299;1969.09;548.112;1.36
300;1993.81;571.795;1.36
301;2006.02;591.571;1.36
302;1998.7;530.29;1.36
303;1966.65;569.842;1.36
304;1929.42;569.842;1.36
305;1931.86;579.608;1.36
306;1956.58;563.738;1.37
307;1966.65;565.935;1.37
308;1966.65;557.878;1.37
309;1946.81;593.524;1.37
310;1907.14;565.935;1.37
311;1879.98;552.019;1.37
312;1922.09;609.149;1.37
313;1951.7;573.748;1.37
314;1966.65;571.795;1.38
315;1969.09;561.785;1.38
316;1951.7;583.514;1.38
317;1924.54;575.701;1.38
318;1924.54;597.43;1.38
319;1971.53;550.066;1.38
320;1996.25;575.701;1.38
321;2006.02;601.337;1.38
322;1998.7;540.056;1.38
323;1963.9;573.748;1.39
324;1926.98;571.795;1.39
325;1931.86;585.467;1.39
326;1961.46;569.842;1.39
327;1969.09;575.701;1.39
328;1969.09;559.832;1.39
329;1946.81;601.337;1.39
330;1907.14;575.701;1.39
331;1885.17;553.972;1.39
332;1919.65;619.16;1.39999
333;1949.26;577.654;1.39999
334;1966.65;577.654;1.39999
335;1971.53;569.842;1.39999
336;1951.7;585.467;1.39999
337;1922.09;583.514;1.39999
338;1926.98;595.477;1.39999
339;1971.53;555.925;1.39999
340;1996.25;585.467;1.39999
341;2006.02;597.43;1.41
342;2001.14;542.009;1.41
343;1966.65;577.654;1.41
344;1931.86;577.654;1.41
345;1934.3;587.42;1.41
346;1959.02;567.888;1.41
347;1966.65;577.654;1.41
348;1966.65;553.972;1.41
349;1946.81;599.384;1.41
350;1904.7;581.561;1.41
351;1882.42;546.159;1.42
352;1922.09;605.243;1.42
353;1954.14;585.467;1.42
354;1966.65;585.467;1.42
355;1971.53;567.888;1.42
356;1954.14;593.524;1.42
357;1922.09;579.608;1.42
358;1926.98;605.243;1.42
359;1973.98;559.832;1.42
360;1996.25;577.654;1.42
361;2006.02;615.253;1.43
362;1998.7;550.066;1.43
363;1966.65;577.654;1.43
364;1929.42;575.701;1.43
365;1939.49;591.571;1.43
366;1961.46;569.842;1.43
367;1969.09;579.608;1.43
368;1969.09;561.785;1.43
369;1946.81;609.149;1.43
370;1907.14;585.467;1.43999
371;1887.61;552.019;1.43999
372;1926.98;615.253;1.43999
373;1956.58;583.514;1.43999
374;1971.53;585.467;1.43999
375;1971.53;569.842;1.43999
376;1954.14;593.524;1.43999
377;1924.54;579.608;1.43999
378;1929.42;603.29;1.43999
379;1978.86;553.972;1.43999
380;1998.7;579.608;1.45
381;2008.46;611.347;1.45
382;2001.14;544.206;1.45
383;1966.65;579.608;1.45
384;1934.3;577.654;1.45
385;1939.49;593.524;1.45
386;1961.46;571.795;1.45
387;1969.09;579.608;1.45
388;1969.09;561.785;1.45
389;1944.37;607.196;1.45
390;1904.7;581.561;1.45
391;1885.17;557.878;1.46
392;1926.98;621.113;1.46
393;1954.14;583.514;1.46
394;1969.09;581.561;1.46
395;1969.09;573.748;1.46
396;1954.14;591.571;1.46
397;1922.09;585.467;1.46
398;1929.42;601.337;1.46
399;1973.98;555.925;1.46
400;1996.25;585.467;1.46
401;2010.9;603.29;1.47
402;2001.14;546.159;1.47
403;1966.65;579.608;1.47
404;1929.42;581.561;1.47
405;1936.74;593.524;1.47
406;1961.46;575.701;1.47
407;1971.53;575.701;1.47
408;1969.09;557.878;1.47
409;1946.81;599.384;1.47
410;1907.14;585.467;1.47
411;1887.61;548.112;1.47
412;1929.42;605.243;1.48
413;1961.46;589.618;1.48
414;1976.42;589.618;1.48
415;1976.42;569.842;1.48
416;1959.02;595.477;1.48
417;1929.42;581.561;1.48
418;1936.74;609.149;1.48
419;1983.74;561.785;1.48
420;2003.58;579.608;1.48
421;2013.34;617.206;1.48
422;2003.58;555.925;1.48
423;1969.09;579.608;1.48
424;1934.3;577.654;1.49
425;1944.37;593.524;1.49
426;1966.65;567.888;1.49
427;1971.53;583.514;1.49
428;1973.98;557.878;1.49
429;1946.81;609.149;1.49
430;1907.14;587.42;1.49
431;1892.49;553.972;1.49
432;1934.3;617.206;1.49
433;1961.46;585.467;1.49
434;1976.42;587.42;1.49
435;1978.86;573.748;1.49
436;1966.65;595.477;1.5
437;1941.93;585.467;1.5
438;1924.54;605.243;1.5
439;1966.65;557.878;1.5
440;2001.14;579.608;1.5
441;2018.23;613.3;1.5
442;2018.23;548.112;1.5
443;1991.07;579.608;1.5
444;1954.14;579.608;1.5
445;1941.93;595.477;1.5
446;1966.65;575.701;1.5
447;1978.86;579.608;1.50999
448;1981.3;563.738;1.50999
449;1966.65;609.149;1.50999
450;1931.86;581.561;1.50999
451;1899.82;557.878;1.50999
452;1919.65;625.019;1.50999
453;1963.9;585.467;1.50999
454;1981.3;583.514;1.50999
455;1986.18;575.701;1.50999
456;1978.86;591.571;1.50999
457;1949.26;585.467;1.50999
458;1934.3;603.29;1.50999
459;1976.42;559.832;1.50999
460;2006.02;587.42;1.52
461;2023.42;609.149;1.52
462;2020.97;546.159;1.52
463;1996.25;583.514;1.52
464;1956.58;583.514;1.52
465;1944.37;595.477;1.52
466;1971.53;575.701;1.52
467;1983.74;579.608;1.52
468;1983.74;569.842;1.52
469;1971.53;611.347;1.52
470;1934.3;585.467;1.52
471;1899.82;553.972;1.52
472;1926.98;621.113;1.53
473;1966.65;585.467;1.53
474;1981.3;587.42;1.53
475;1991.07;573.748;1.53
476;1978.86;595.477;1.53
477;1949.26;585.467;1.53
478;1934.3;607.196;1.53
479;1978.86;555.925;1.53
480;2010.9;585.467;1.53
481;2023.42;613.3;1.53
482;2023.42;544.206;1.53
483;1998.7;581.561;1.53
484;1959.02;579.608;1.53
485;1946.81;595.477;1.54
486;1973.98;573.748;1.54
487;1983.74;579.608;1.54
488;1986.18;567.888;1.54
489;1971.53;609.149;1.54
490;1936.74;583.514;1.54
491;1904.7;559.832;1.54
492;1929.42;628.925;1.54
493;1966.65;585.467;1.54
494;1986.18;583.514;1.54
495;1993.81;577.654;1.54
496;1981.3;591.571;1.54
497;1949.26;589.618;1.54
498;1939.49;601.337;1.55
499;1981.3;563.738;1.55
500;2010.9;587.42;1.55
501;2025.86;617.206;1.55
502;2025.86;563.738;1.55
503;1996.25;581.561;1.55
504;1959.02;579.608;1.55
505;1949.26;595.477;1.55
506;1976.42;571.795;1.55
507;1988.62;581.561;1.55
508;1991.07;559.832;1.55
509;1976.42;605.243;1.55
510;1939.49;589.618;1.55
511;1907.14;552.019;1.56
512;1931.86;609.149;1.56
513;1971.53;593.524;1.56
514;1991.07;591.571;1.56
515;1996.25;573.748;1.56
516;1983.74;597.43;1.56
517;1954.14;587.42;1.56
518;1946.81;611.347;1.56
519;1986.18;563.738;1.56
520;2018.23;583.514;1.56
521;2033.18;619.16;1.56
522;2030.74;553.972;1.56
523;2003.58;579.608;1.56
524;1963.9;579.608;1.57
525;1954.14;597.43;1.57
526;1978.86;571.795;1.57
527;1991.07;583.514;1.57
528;1993.81;561.785;1.57
529;1976.42;615.253;1.57
530;1939.49;585.467;1.57
531;1907.14;553.972;1.57
532;1936.74;619.16;1.57
533;1973.98;589.618;1.57
534;1988.62;589.618;1.57
535;1998.7;573.748;1.57
536;1983.74;597.43;1.57
537;1956.58;585.467;1.57999
538;1944.37;605.243;1.57999
539;1986.18;557.878;1.57999
540;2018.23;583.514;1.57999
541;2030.74;613.3;1.57999
542;2028.3;550.066;1.57999
543;1998.7;581.561;1.57999
544;1961.46;579.608;1.57999
545;1954.14;597.43;1.57999
546;1978.86;573.748;1.57999
547;1988.62;581.561;1.57999
548;1991.07;567.888;1.57999
549;1976.42;611.347;1.57999
550;1936.74;585.467;1.57999
551;1904.7;555.925;1.59
552;1934.3;626.972;1.59
553;1971.53;587.42;1.59
554;1986.18;587.42;1.59
555;1993.81;575.701;1.59
556;1978.86;593.524;1.59
557;1951.7;589.618;1.59
558;1939.49;605.243;1.59
559;1986.18;559.832;1.59
560;2015.79;589.618;1.59
561;2028.3;607.196;1.59
562;2025.86;548.112;1.59
563;1996.25;579.608;1.59
564;1956.58;577.654;1.6
565;1951.7;595.477;1.6
566;1978.86;571.795;1.6
567;1988.62;583.514;1.6
568;1988.62;557.878;1.6
569;1971.53;603.29;1.6
570;1934.3;589.618;1.6
571;1904.7;553.972;1.6
572;1929.42;607.196;1.6
573;1971.53;591.571;1.6
574;1983.74;591.571;1.6
575;1993.81;571.795;1.6
576;1976.42;597.43;1.6
577;1946.81;585.467;1.6
578;1939.49;611.347;1.61
579;1983.74;567.888;1.61
580;2013.34;581.561;1.61
581;2025.86;617.206;1.61
582;2020.97;555.925;1.61
583;1993.81;579.608;1.61
584;1954.14;577.654;1.61
585;1946.81;593.524;1.61
586;1976.42;573.748;1.61
587;1983.74;581.561;1.61
588;1986.18;561.785;1.61
589;1969.09;611.347;1.61
590;1931.86;585.467;1.61
591;1899.82;552.019;1.61
592;1934.3;615.253;1.62
593;1969.09;587.42;1.62
594;1983.74;587.42;1.62
595;1991.07;575.701;1.62
596;1976.42;595.477;1.62
597;1946.81;581.561;1.62
598;1939.49;607.196;1.62
599;1983.74;557.878;1.62
600;2010.9;581.561;1.62
601;2023.42;615.253;1.62
602;2020.97;550.066;1.62
603;1993.81;581.561;1.62
604;1954.14;579.608;1.62
605;1949.26;595.477;1.62
606;1973.98;571.795;1.63
607;1983.74;579.608;1.63
608;1986.18;565.935;1.63
609;1969.09;611.347;1.63
610;1931.86;585.467;1.63
611;1902.26;553.972;1.63
612;1934.3;623.066;1.63
613;1969.09;587.42;1.63
614;1986.18;583.514;1.63
615;1991.07;573.748;1.63
616;1981.3;591.571;1.63
617;1949.26;583.514;1.63
618;1941.93;603.29;1.63
619;1986.18;559.832;1.63
620;2010.9;585.467;1.63
621;2025.86;607.196;1.64
622;2020.97;546.159;1.64
623;1991.07;581.561;1.64
624;1951.7;581.561;1.64
625;1951.7;595.477;1.64
626;1978.86;569.842;1.64
627;1986.18;579.608;1.64
628;1988.62;561.785;1.64
629;1969.09;613.3;1.64
630;1929.42;585.467;1.64
631;1902.26;555.925;1.64
632;1936.74;619.16;1.64
633;1969.09;585.467;1.64
634;1981.3;587.42;1.64
635;1988.62;571.795;1.64999
636;1976.42;593.524;1.64999
637;1946.81;583.514;1.64999
638;1936.74;605.243;1.64999
639;1986.18;555.925;1.64999
640;2010.9;581.561;1.64999
641;2023.42;611.347;1.64999
642;2020.97;544.206;1.64999
643;1988.62;579.608;1.64999
644;1951.7;579.608;1.64999
645;1949.26;593.524;1.64999
646;1976.42;573.748;1.64999
647;1986.18;579.608;1.64999
648;1983.74;561.785;1.64999
649;1969.09;611.347;1.64999
650;1929.42;581.561;1.66
651;1902.26;557.878;1.66
652;1934.3;623.066;1.66
653;1966.65;583.514;1.66
654;1983.74;583.514;1.66
655;1986.18;571.795;1.66
656;1971.53;593.524;1.66
657;1944.37;581.561;1.66
658;1939.49;607.196;1.66
659;1981.3;571.795;1.66
660;2008.46;577.654;1.66
661;2020.97;615.253;1.66
662;2018.23;561.785;1.66
663;1988.62;573.748;1.66
664;1951.7;573.748;1.66
665;1946.81;591.571;1.66
666;1973.98;567.888;1.67
667;1983.74;579.608;1.67
668;1986.18;557.878;1.67
669;1969.09;603.29;1.67
670;1929.42;587.42;1.67
671;1902.26;550.066;1.67
672;1936.74;605.243;1.67
673;1971.53;587.42;1.67
674;1983.74;585.467;1.67
675;1991.07;567.888;1.67
676;1973.98;595.477;1.67
677;1944.37;581.561;1.67
678;1936.74;605.243;1.67
679;1983.74;561.785;1.67
680;2010.9;575.701;1.67
681;2023.42;615.253;1.67
682;2020.97;555.925;1.68
683;1986.18;579.608;1.68
684;1949.26;571.795;1.68
685;1946.81;593.524;1.68
686;1973.98;569.842;1.68
687;1981.3;579.608;1.68
688;1986.18;557.878;1.68
689;1966.65;607.196;1.68
690;1924.54;585.467;1.68
691;1902.26;550.066;1.68
692;1936.74;615.253;1.68
693;1966.65;585.467;1.68
694;1981.3;587.42;1.68
695;1988.62;567.888;1.68
696;1971.53;591.571;1.68
697;1941.93;579.608;1.68999
698;1939.49;603.29;1.68999
699;1986.18;552.019;1.68999
700;2013.34;579.608;1.68999
701;2023.42;611.347;1.68999
702;2018.23;546.159;1.68999
703;1986.18;577.654;1.68999
704;1949.26;575.701;1.68999
705;1946.81;593.524;1.68999
706;1976.42;571.795;1.68999
707;1983.74;577.654;1.68999
708;1983.74;561.785;1.68999
709;1963.9;609.149;1.68999
710;1926.98;579.608;1.68999
711;1902.26;553.972;1.68999
712;1936.74;621.113;1.68999
713;1966.65;581.561;1.68999
714;1981.3;581.561;1.7
715;1986.18;571.795;1.7
716;1971.53;589.618;1.7
717;1941.93;581.561;1.7
718;1939.49;605.243;1.7
719;1983.74;571.795;1.7
720;2008.46;577.654;1.7
721;2018.23;615.253;1.7
722;2015.79;565.935;1.7
723;1983.74;571.795;1.7
724;1944.37;573.748;1.7
725;1946.81;593.524;1.7
726;1973.98;567.888;1.7
727;1981.3;577.654;1.7
728;1981.3;553.972;1.7
729;1963.9;597.43;1.7
730;1922.09;583.514;1.7
731;1897.37;546.159;1.71
732;1936.74;601.337;1.71
733;1966.65;585.467;1.71
734;1981.3;585.467;1.71
735;1988.62;567.888;1.71
736;1971.53;591.571;1.71
737;1941.93;579.608;1.71
738;1941.93;605.243;1.71
739;1983.74;563.738;1.71
740;2010.9;575.701;1.71
741;2020.97;611.347;1.71
742;2015.79;553.972;1.71
