<WeldAnalyseData xmlns:i="http:www.w3.org/2001/XMLSchema-instance">
<WeldParameter>
<TimeStamp>DT#2024-01-24-14:46:39</TimeStamp>
<Generator>SG-22-10000</Generator>
<GenFreq>20</GenFreq>
<MaxForce>8000</MaxForce>
<MaxPower>10000</MaxPower>
<RunupPressure>1.5</RunupPressure>
<RunupDist>10</RunupDist>
<RunPress>0.8</RunPress>
<ShakeDelay>0.03</ShakeDelay>
<ShakeTime>0.3</ShakeTime>
<RunBackPress1>6</RunBackPress1>
<RunBackPress2>2</RunBackPress2>
<RunBackDist>1</RunBackDist>
<TrigValue>500</TrigValue>
<TrigModeUnit>W</TrigModeUnit>
<WeldModeUnit>Ws</WeldModeUnit>
<PressNr>0</PressNr>
<MaxLoss>1500</MaxLoss>
</WeldParameter>
<WeldSets>
<WeldSet>
<PressRiseTime>0</PressRiseTime>
<RunPressure>1</RunPressure>
<Amplitude>86</Amplitude>
<WeldMode>3270</WeldMode>
</WeldSet>
</WeldSets>
<WeldValue>
<WeldNr>2968</WeldNr>
<RecipeName>RickStyle</RecipeName>
<WeldTime>1691</WeldTime>
<DistDiff>2.35</DistDiff>
<DistAbs>78</DistAbs>
<Energy>3271.88</Energy>
<MaxPower>2129.14</MaxPower>
<CycleTime>6130</CycleTime>
<TrigForce>500.748</TrigForce>
<TrigDist>75.65</TrigDist>
<RunSpeed>67.7867</RunSpeed>
<MaxForce>623.066</MaxForce>
<LossPower>325.156</LossPower>
</WeldValue>
</WeldAnalyseData>
#CSV-START#
ms;Power[W];Force[N];Distance[mm]
1;0;0;0
2;0;500.748;0
3;0;498.795;0
4;0;500.748;0
5;0;502.701;0
6;0;502.701;0
7;0;498.795;0
8;0;484.878;0
9;0;427.503;0.0100021
10;0;411.878;0.0299988
11;0;368.419;0.0599976
12;22.7554;364.513;0.0999985
13;77.0783;342.784;0.139999
14;153.68;311.045;0.18
15;230.281;324.961;0.220001
16;289.487;295.419;0.260002
17;343.81;287.362;0.299995
18;400.575;275.643;0.349998
19;457.339;283.456;0.400002
20;511.662;287.362;0.449997
21;576.056;299.326;0.489998
22;645.028;283.456;0.529999
23;711.863;303.232;0.559998
24;775.952;319.102;0.589996
25;840.041;293.222;0.619995
26;884.598;323.008;0.639999
27;929.155;334.727;0.659996
28;985.92;354.503;0.68
29;1042.68;358.409;0.689995
30;1086.94;364.513;0.699997
31;1126.61;376.232;0.709999
32;1146.14;401.868;0.709999
33;1151.33;390.149;0.709999
34;1173.3;392.102;0.720001
35;1217.86;427.503;0.720001
36;1257.53;405.774;0.729996
37;1287.14;405.774;0.729996
38;1314.3;405.774;0.739998
39;1328.95;415.784;0.739998
40;1339.02;423.597;0.75
41;1375.95;423.597;0.75
42;1427.83;407.971;0.760002
43;1459.87;433.607;0.760002
44;1491.92;429.456;0.769997
45;1506.87;399.915;0.779999
46;1499.24;421.644;0.779999
47;1499.24;431.654;0.790001
48;1531.59;435.56;0.790001
49;1568.52;423.597;0.799995
50;1593.24;415.784;0.809998
51;1610.63;427.503;0.809998
52;1607.89;443.373;0.82
53;1590.8;415.784;0.830002
54;1600.56;429.456;0.839996
55;1654.89;457.289;0.839996
56;1689.37;437.513;0.849998
57;1718.97;431.654;0.860001
58;1733.93;437.513;0.860001
59;1731.49;447.279;0.869995
60;1718.97;465.102;0.879997
61;1751.32;453.383;0.879997
62;1800.46;441.42;0.889999
63;1830.37;477.065;0.900002
64;1852.34;459.243;0.900002
65;1852.34;439.467;0.909996
66;1827.62;457.289;0.909996
67;1810.53;470.962;0.919998
68;1832.81;469.008;0.919998
69;1862.41;461.196;0.93
70;1877.06;445.326;0.93
71;1879.5;470.962;0.939995
72;1864.85;477.065;0.939995
73;1832.81;469.008;0.949997
74;1830.37;447.279;0.949997
75;1877.06;506.607;0.959999
76;1906.66;472.915;0.959999
77;1926.5;472.915;0.970001
78;1928.94;465.102;0.970001
79;1916.73;484.878;0.979996
80;1899.34;486.831;0.979996
81;1921.62;496.597;0.989998
82;1973.5;459.243;0.989998
83;1998.22;486.831;0.989998
84;2017.75;504.654;1
85;2010.43;451.186;1
86;1980.82;488.784;1.01
87;1956.1;490.738;1.01
88;1980.82;500.748;1.01
89;2007.98;484.878;1.02
90;2020.5;482.925;1.02
91;2022.94;482.925;1.03
92;2000.66;518.326;1.03
93;1960.99;490.738;1.03
94;1951.22;479.019;1.04
95;1995.78;534.196;1.04
96;2027.82;500.748;1.04
97;2042.47;496.597;1.05
98;2037.59;494.644;1.05
99;2017.75;508.56;1.05
100;1990.59;512.467;1.06
101;2010.43;518.326;1.06
102;2057.42;484.878;1.06
103;2082.14;518.326;1.07
104;2091.91;518.326;1.07
105;2077.26;475.112;1.07
106;2042.47;504.654;1.08
107;2010.43;510.514;1.08
108;2027.82;514.42;1.08
109;2052.54;502.701;1.09
110;2059.87;492.691;1.09
111;2057.42;500.748;1.09
112;2027.82;526.383;1.1
113;1988.15;494.644;1.1
114;1973.5;496.597;1.1
115;2012.87;544.206;1.11
116;2040.03;510.514;1.11
117;2050.1;504.654;1.11
118;2050.1;506.607;1.12
119;2025.38;518.326;1.12
120;1995.78;528.336;1.12
121;2010.43;522.477;1.12
122;2057.42;500.748;1.13
123;2077.26;532.243;1.13
124;2087.03;524.43;1.13
125;2074.82;488.784;1.14
126;2037.59;514.42;1.14
127;2003.1;522.477;1.14
128;2022.94;524.43;1.14
129;2044.91;510.514;1.15
130;2047.66;502.701;1.15
131;2044.91;516.373;1.15
132;2017.75;532.243;1.15
133;1971.06;502.701;1.16
134;1958.54;514.42;1.16
135;1993.34;548.112;1.16
136;2020.5;520.524;1.17
137;2030.26;510.514;1.17
138;2030.26;516.373;1.17
139;2003.1;522.477;1.17
140;1975.94;542.009;1.18
141;1988.15;526.383;1.18
142;2032.7;508.56;1.18
143;2052.54;542.009;1.18
144;2062.31;528.336;1.18999
145;2047.66;502.701;1.18999
146;2010.43;524.43;1.18999
147;1983.26;532.243;1.18999
148;1995.78;534.196;1.18999
149;2017.75;524.43;1.2
150;2027.82;504.654;1.2
151;2022.94;526.383;1.2
152;1993.34;538.102;1.2
153;1951.22;504.654;1.2
154;1939.01;524.43;1.21
155;1980.82;559.832;1.21
156;2005.54;528.336;1.21
157;2017.75;522.477;1.21
158;2015.31;522.477;1.21
159;1995.78;534.196;1.22
160;1963.43;542.009;1.22
161;1975.94;540.056;1.22
162;2020.5;514.42;1.22
163;2042.47;544.206;1.22
164;2052.54;542.009;1.23
165;2037.59;504.654;1.23
166;2005.54;532.243;1.23
167;1971.06;540.056;1.23
168;1985.71;542.009;1.23
169;2005.54;526.383;1.23
170;2012.87;518.326;1.24
171;2010.43;528.336;1.24
172;1983.26;552.019;1.24
173;1939.01;520.524;1.24
174;1924.06;528.336;1.24
175;1960.99;565.935;1.25
176;1988.15;536.149;1.25
177;1998.22;530.29;1.25
178;1995.78;530.29;1.25
179;1973.5;540.056;1.25
180;1946.34;555.925;1.25
181;1953.66;546.159;1.26
182;2000.66;524.43;1.26
183;2020.5;555.925;1.26
184;2030.26;544.206;1.26
185;2020.5;514.42;1.26
186;1985.71;538.102;1.26
187;1953.66;546.159;1.27
188;1966.17;550.066;1.27
189;1990.59;536.149;1.27
190;1995.78;522.477;1.27
191;1995.78;538.102;1.27
192;1968.62;552.019;1.27
193;1928.94;518.326;1.28
194;1909.1;536.149;1.28
195;1948.78;575.701;1.28
196;1975.94;542.009;1.28
197;1983.26;544.206;1.28
198;1983.26;532.243;1.28
199;1960.99;550.066;1.29
200;1933.82;544.206;1.29
201;1946.34;561.785;1.29
202;1988.15;516.373;1.29
203;2010.43;544.206;1.29
204;2017.75;567.888;1.29
205;2005.54;506.607;1.3
206;1975.94;540.056;1.3
207;1943.9;542.009;1.3
208;1953.66;552.019;1.3
209;1975.94;536.149;1.3
210;1985.71;540.056;1.3
211;1980.82;530.29;1.3
212;1958.54;569.842;1.31
213;1919.18;544.206;1.31
214;1899.34;526.383;1.31
215;1939.01;583.514;1.31
216;1960.99;546.159;1.31
217;1971.06;546.159;1.31
218;1973.5;536.149;1.31
219;1951.22;555.925;1.32
220;1924.06;553.972;1.32
221;1933.82;563.738;1.32
222;1978.38;526.383;1.32
223;1998.22;552.019;1.32
224;2007.98;567.888;1.32
225;1998.22;512.467;1.33
226;1966.17;546.159;1.33
227;1939.01;550.066;1.33
228;1948.78;555.925;1.33
229;1968.62;542.009;1.33
230;1975.94;540.056;1.33
231;1975.94;538.102;1.33
232;1951.22;569.842;1.34
233;1909.1;542.009;1.34
234;1894.46;534.196;1.34
235;1931.38;585.467;1.34
236;1956.1;548.112;1.34
237;1966.17;546.159;1.34
238;1968.62;542.009;1.34
239;1948.78;555.925;1.34
240;1916.73;561.785;1.35
241;1926.5;563.738;1.35
242;1968.62;532.243;1.35
243;1990.59;559.832;1.35
244;2003.1;565.935;1.35
245;1995.78;522.477;1.35
246;1960.99;552.019;1.35
247;1928.94;555.925;1.36
248;1939.01;557.878;1.36
249;1960.99;546.159;1.36
250;1966.17;540.056;1.36
251;1966.17;544.206;1.36
252;1943.9;569.842;1.36
253;1904.22;542.009;1.36
254;1884.69;542.009;1.37
255;1921.62;587.42;1.37
256;1946.34;555.925;1.37
257;1958.54;548.112;1.37
258;1958.54;548.112;1.37
259;1941.45;559.832;1.37
260;1906.66;567.888;1.37
261;1916.73;565.935;1.37
262;1960.99;540.056;1.38
263;1980.82;569.842;1.38
264;1990.59;567.888;1.38
265;1985.71;530.29;1.38
266;1951.22;557.878;1.38
267;1921.62;565.935;1.38
268;1928.94;563.738;1.38
269;1951.22;552.019;1.38
270;1958.54;542.009;1.39
271;1960.99;557.878;1.39
272;1933.82;573.748;1.39
273;1899.34;542.009;1.39
274;1879.5;553.972;1.39
275;1914.29;585.467;1.39
276;1936.27;561.785;1.39
277;1951.22;563.738;1.4
278;1953.66;550.066;1.4
279;1933.82;569.842;1.4
280;1901.78;561.785;1.4
281;1909.1;583.514;1.4
282;1953.66;534.196;1.4
283;1975.94;561.785;1.4
284;1988.15;591.571;1.4
285;1978.38;530.29;1.4
286;1948.78;557.878;1.41
287;1914.29;559.832;1.41
288;1924.06;575.701;1.41
289;1946.34;553.972;1.41
290;1956.1;559.832;1.41
291;1956.1;548.112;1.41
292;1928.94;589.618;1.41
293;1892.01;565.935;1.41
294;1872.18;542.009;1.42
295;1906.66;601.337;1.42
296;1931.38;565.935;1.42
297;1943.9;565.935;1.42
298;1943.9;557.878;1.42
299;1926.5;573.748;1.42
300;1899.34;571.795;1.42
301;1904.22;585.467;1.42
302;1943.9;540.056;1.43
303;1968.62;569.842;1.43
304;1978.38;589.618;1.43
305;1971.06;530.29;1.43
306;1941.45;565.935;1.43
307;1909.1;569.842;1.43
308;1914.29;577.654;1.43
309;1939.01;559.832;1.43
310;1946.34;563.738;1.43
311;1948.78;555.925;1.43999
312;1926.5;595.477;1.43999
313;1887.13;565.935;1.43999
314;1864.85;548.112;1.43999
315;1901.78;609.149;1.43999
316;1926.5;571.795;1.43999
317;1939.01;569.842;1.43999
318;1943.9;565.935;1.43999
319;1924.06;579.608;1.45
320;1896.9;579.608;1.45
321;1899.34;587.42;1.45
322;1939.01;550.066;1.45
323;1966.17;575.701;1.45
324;1975.94;593.524;1.45
325;1973.5;538.102;1.45
326;1939.01;573.748;1.45
327;1909.1;575.701;1.45
328;1911.85;583.514;1.46
329;1939.01;565.935;1.46
330;1946.34;563.738;1.46
331;1943.9;559.832;1.46
332;1924.06;595.477;1.46
333;1887.13;565.935;1.46
334;1864.85;557.878;1.46
335;1899.34;609.149;1.46
336;1926.5;573.748;1.46
337;1936.27;571.795;1.47
338;1941.45;567.888;1.47
339;1924.06;579.608;1.47
340;1896.9;587.42;1.47
341;1899.34;589.618;1.47
342;1941.45;555.925;1.47
343;1963.43;585.467;1.47
344;1975.94;589.618;1.47
345;1973.5;544.206;1.47
346;1941.45;571.795;1.47
347;1906.66;581.561;1.48
348;1911.85;583.514;1.48
349;1939.01;569.842;1.48
350;1946.34;563.738;1.48
351;1943.9;571.795;1.48
352;1926.5;593.524;1.48
353;1889.57;561.785;1.48
354;1864.85;565.935;1.48
355;1901.78;607.196;1.48
356;1926.5;575.701;1.49
357;1939.01;571.795;1.49
358;1939.01;567.888;1.49
359;1924.06;583.514;1.49
360;1899.34;583.514;1.49
361;1901.78;595.477;1.49
362;1943.9;553.972;1.49
363;1960.99;581.561;1.49
364;1978.38;599.384;1.49
365;1971.06;542.009;1.49
366;1943.9;577.654;1.5
367;1909.1;579.608;1.5
368;1914.29;585.467;1.5
369;1941.45;569.842;1.5
370;1946.34;571.795;1.5
371;1948.78;565.935;1.5
372;1928.94;601.337;1.5
373;1889.57;573.748;1.5
374;1867.29;561.785;1.5
375;1899.34;617.206;1.5
376;1924.06;577.654;1.51
377;1939.01;573.748;1.51
378;1941.45;571.795;1.51
379;1924.06;585.467;1.51
380;1894.46;585.467;1.51
381;1894.46;591.571;1.51
382;1939.01;561.785;1.51
383;1960.99;585.467;1.51
384;1973.5;593.524;1.51
385;1968.62;546.159;1.51
386;1939.01;577.654;1.52
387;1906.66;583.514;1.52
388;1909.1;585.467;1.52
389;1936.27;573.748;1.52
390;1941.45;563.738;1.52
391;1943.9;569.842;1.52
392;1924.06;597.43;1.52
393;1889.57;569.842;1.52
394;1859.97;565.935;1.52
395;1894.46;611.347;1.52
396;1921.62;579.608;1.52
397;1933.82;573.748;1.53
398;1939.01;573.748;1.53
399;1921.62;591.571;1.53
400;1894.46;577.654;1.53
401;1892.01;601.337;1.53
402;1936.27;557.878;1.53
403;1956.1;573.748;1.53
404;1968.62;611.347;1.53
405;1968.62;552.019;1.53
406;1939.01;575.701;1.53
407;1904.22;575.701;1.53
408;1906.66;589.618;1.54
409;1931.38;569.842;1.54
410;1939.01;577.654;1.54
411;1939.01;559.832;1.54
412;1926.5;607.196;1.54
413;1887.13;583.514;1.54
414;1859.97;552.019;1.54
415;1889.57;611.347;1.54
416;1919.18;583.514;1.54
417;1933.82;581.561;1.54
418;1939.01;569.842;1.54
419;1919.18;589.618;1.54
420;1892.01;581.561;1.54
421;1889.57;601.337;1.55
422;1933.82;553.972;1.55
423;1958.54;577.654;1.55
424;1971.06;607.196;1.55
425;1968.62;548.112;1.55
426;1939.01;577.654;1.55
427;1904.22;577.654;1.55
428;1906.66;591.571;1.55
429;1928.94;569.842;1.55
430;1939.01;573.748;1.55
431;1943.9;561.785;1.55
432;1924.06;605.243;1.55
433;1887.13;579.608;1.56
434;1859.97;555.925;1.56
435;1892.01;617.206;1.56
436;1916.73;579.608;1.56
437;1931.38;581.561;1.56
438;1936.27;571.795;1.56
439;1919.18;589.618;1.56
440;1896.9;583.514;1.56
441;1892.01;601.337;1.56
442;1933.82;555.925;1.56
443;1958.54;581.561;1.56
444;1971.06;605.243;1.56
445;1968.62;544.206;1.57
446;1941.45;579.608;1.57
447;1909.1;579.608;1.57
448;1906.66;589.618;1.57
449;1933.82;573.748;1.57
450;1941.45;575.701;1.57
451;1946.34;565.935;1.57
452;1926.5;603.29;1.57
453;1892.01;575.701;1.57
454;1862.41;559.832;1.57
455;1894.46;619.16;1.57
456;1921.62;581.561;1.57
457;1933.82;581.561;1.57
458;1939.01;571.795;1.58
459;1924.06;587.42;1.58
460;1896.9;585.467;1.58
461;1894.46;599.384;1.58
462;1936.27;559.832;1.58
463;1963.43;587.42;1.58
464;1975.94;601.337;1.58
465;1973.5;548.112;1.58
466;1943.9;581.561;1.58
467;1909.1;581.561;1.58
468;1909.1;587.42;1.58
469;1936.27;573.748;1.58
470;1946.34;569.842;1.58
471;1946.34;571.795;1.58
472;1933.82;601.337;1.59
473;1896.9;573.748;1.59
474;1867.29;565.935;1.59
475;1894.46;619.16;1.59
476;1924.06;579.608;1.59
477;1936.27;575.701;1.59
478;1939.01;573.748;1.59
479;1926.5;585.467;1.59
480;1899.34;581.561;1.59
481;1894.46;607.196;1.59
482;1936.27;563.738;1.59
483;1963.43;577.654;1.59
484;1975.94;613.3;1.59
485;1975.94;557.878;1.6
486;1946.34;575.701;1.6
487;1914.29;575.701;1.6
488;1909.1;589.618;1.6
489;1939.01;571.795;1.6
490;1943.9;579.608;1.6
491;1948.78;559.832;1.6
492;1933.82;607.196;1.6
493;1896.9;583.514;1.6
494;1869.74;552.019;1.6
495;1896.9;609.149;1.6
496;1926.5;585.467;1.6
497;1939.01;587.42;1.6
498;1943.9;571.795;1.6
499;1928.94;591.571;1.61
500;1901.78;583.514;1.61
501;1894.46;605.243;1.61
502;1939.01;557.878;1.61
503;1963.43;579.608;1.61
504;1978.38;613.3;1.61
505;1975.94;553.972;1.61
506;1948.78;579.608;1.61
507;1911.85;577.654;1.61
508;1911.85;591.571;1.61
509;1939.01;573.748;1.61
510;1946.34;583.514;1.61
511;1951.22;563.738;1.61
512;1936.27;611.347;1.61
513;1896.9;583.514;1.62
514;1869.74;555.925;1.62
515;1894.46;617.206;1.62
516;1926.5;585.467;1.62
517;1939.01;583.514;1.62
518;1946.34;571.795;1.62
519;1931.38;593.524;1.62
520;1904.22;585.467;1.62
521;1896.9;605.243;1.62
522;1939.01;559.832;1.62
523;1966.17;581.561;1.62
524;1978.38;609.149;1.62
525;1975.94;550.066;1.62
526;1951.22;583.514;1.62
527;1914.29;581.561;1.63
528;1914.29;593.524;1.63
529;1939.01;575.701;1.63
530;1948.78;579.608;1.63
531;1951.22;565.935;1.63
532;1936.27;609.149;1.63
533;1901.78;583.514;1.63
534;1872.18;557.878;1.63
535;1896.9;621.113;1.63
536;1928.94;583.514;1.63
537;1939.01;583.514;1.63
538;1948.78;575.701;1.63
539;1936.27;591.571;1.63
540;1906.66;587.42;1.63
541;1899.34;603.29;1.64
542;1939.01;559.832;1.64
543;1966.17;585.467;1.64
544;1978.38;607.196;1.64
545;1980.82;550.066;1.64
546;1953.66;585.467;1.64
547;1916.73;583.514;1.64
548;1914.29;591.571;1.64
549;1943.9;577.654;1.64
550;1953.66;577.654;1.64
551;1953.66;571.795;1.64
552;1939.01;607.196;1.64
553;1906.66;581.561;1.64
554;1874.62;563.738;1.64
555;1901.78;621.113;1.65
556;1931.38;581.561;1.65
557;1943.9;583.514;1.65
558;1951.22;575.701;1.65
559;1939.01;589.618;1.65
560;1906.66;593.524;1.65
561;1899.34;607.196;1.65
562;1941.45;559.832;1.65
563;1971.06;583.514;1.65
564;1983.26;611.347;1.65
565;1985.71;552.019;1.65
566;1958.54;579.608;1.65
567;1921.62;581.561;1.65
568;1916.73;593.524;1.65
569;1946.34;575.701;1.66
570;1953.66;583.514;1.66
571;1956.1;567.888;1.66
572;1943.9;611.347;1.66
573;1906.66;587.42;1.66
574;1877.06;559.832;1.66
575;1901.78;621.113;1.66
576;1931.38;585.467;1.66
577;1946.34;585.467;1.66
578;1953.66;573.748;1.66
579;1941.45;593.524;1.66
580;1909.1;587.42;1.66
581;1901.78;603.29;1.66
582;1943.9;559.832;1.66
583;1971.06;587.42;1.66
584;1983.26;607.196;1.67
585;1985.71;552.019;1.67
586;1958.54;581.561;1.67
587;1924.06;585.467;1.67
588;1919.18;593.524;1.67
589;1943.9;575.701;1.67
590;1956.1;577.654;1.67
591;1958.54;569.842;1.67
592;1943.9;607.196;1.67
593;1909.1;581.561;1.67
594;1874.62;563.738;1.67
595;1899.34;623.066;1.67
596;1931.38;583.514;1.67
597;1946.34;581.561;1.67
598;1953.66;575.701;1.67
599;1941.45;591.571;1.68
600;1911.85;589.618;1.68
601;1901.78;601.337;1.68
602;1943.9;571.795;1.68
603;1971.06;579.608;1.68
604;1985.71;615.253;1.68
605;1985.71;563.738;1.68
606;1958.54;575.701;1.68
607;1926.5;575.701;1.68
608;1919.18;593.524;1.68
609;1943.9;571.795;1.68
610;1956.1;583.514;1.68
611;1958.54;559.832;1.68
612;1946.34;605.243;1.68
613;1911.85;587.42;1.68
614;1879.5;553.972;1.68999
615;1901.78;603.29;1.68999
616;1933.82;587.42;1.68999
617;1946.34;589.618;1.68999
618;1953.66;571.795;1.68999
619;1943.9;593.524;1.68999
620;1914.29;585.467;1.68999
621;1901.78;607.196;1.68999
622;1943.9;565.935;1.68999
623;1973.5;579.608;1.68999
624;1983.26;615.253;1.68999
625;1985.71;559.832;1.68999
626;1963.43;577.654;1.68999
627;1928.94;573.748;1.68999
628;1916.73;593.524;1.68999
629;1948.78;571.795;1.7
630;1958.54;579.608;1.7
631;1960.99;559.832;1.7
632;1946.34;605.243;1.7
633;1911.85;585.467;1.7
634;1879.5;552.019;1.7
635;1899.34;607.196;1.7
636;1936.27;585.467;1.7
637;1948.78;585.467;1.7
638;1956.1;571.795;1.7
639;1946.34;595.477;1.7
640;1914.29;583.514;1.7
641;1901.78;609.149;1.7
642;1943.9;557.878;1.7
643;1973.5;579.608;1.7
644;1988.15;611.347;1.7
645;1988.15;552.019;1.71
646;1966.17;579.608;1.71
647;1928.94;575.701;1.71
648;1919.18;593.524;1.71
649;1948.78;569.842;1.71
650;1956.1;579.608;1.71
651;1963.43;561.785;1.71
652;1948.78;609.149;1.71
653;1916.73;583.514;1.71
654;1879.5;552.019;1.71
655;1901.78;615.253;1.71
656;1933.82;585.467;1.71
657;1948.78;583.514;1.71
658;1956.1;571.795;1.71
659;1946.34;591.571;1.71
660;1916.73;581.561;1.71
661;1901.78;603.29;1.72
662;1941.45;557.878;1.72
663;1973.5;581.561;1.72
664;1983.26;605.243;1.72
665;1988.15;548.112;1.72
666;1966.17;579.608;1.72
667;1931.38;579.608;1.72
668;1921.62;589.618;1.72
669;1948.78;573.748;1.72
670;1956.1;575.701;1.72
671;1963.43;565.935;1.72
672;1951.22;605.243;1.72
673;1914.29;581.561;1.72
674;1879.5;557.878;1.72
675;1899.34;619.16;1.72
676;1936.27;581.561;1.72
677;1946.34;581.561;1.72
678;1953.66;571.795;1.73
679;1943.9;587.42;1.73
680;1914.29;583.514;1.73
681;1904.22;599.384;1.73
682;1943.9;555.925;1.73
683;1973.5;575.701;1.73
684;1988.15;611.347;1.73
685;1988.15;565.935;1.73
686;1966.17;573.748;1.73
687;1931.38;571.795;1.73
688;1921.62;591.571;1.73
689;1946.34;569.842;1.73
690;1960.99;575.701;1.73
691;1960.99;553.972;1.73
692;1951.22;595.477;1.73
693;1914.29;585.467;1.73
694;1879.5;550.066;1.73
695;1899.34;597.43;1.74
696;1933.82;585.467;1.74
697;1948.78;587.42;1.74
698;1956.1;567.888;1.74
699;1946.34;591.571;1.74
700;1919.18;581.561;1.74
701;1904.22;603.29;1.74
702;1941.45;567.888;1.74
703;1975.94;577.654;1.74
704;1988.15;611.347;1.74
705;1990.59;559.832;1.74
706;1966.17;577.654;1.74
707;1931.38;571.795;1.74
708;1919.18;593.524;1.74
709;1946.34;569.842;1.74
710;1956.1;575.701;1.74
711;1960.99;553.972;1.74
712;1948.78;601.337;1.75
713;1916.73;585.467;1.75
714;1881.94;548.112;1.75
715;1899.34;603.29;1.75
716;1933.82;583.514;1.75
717;1948.78;585.467;1.75
718;1958.54;569.842;1.75
719;1948.78;593.524;1.75
720;1919.18;577.654;1.75
721;1906.66;603.29;1.75
722;1943.9;557.878;1.75
723;1973.5;575.701;1.75
724;1985.71;609.149;1.75
725;1993.34;553.972;1.75
726;1968.62;575.701;1.75
727;1933.82;573.748;1.75
728;1921.62;589.618;1.75
729;1946.34;567.888;1.76
730;1958.54;577.654;1.76
731;1963.43;557.878;1.76
732;1951.22;605.243;1.76
733;1919.18;583.514;1.76
734;1881.94;548.112;1.76
735;1899.34;605.243;1.76
736;1933.82;581.561;1.76
737;1948.78;585.467;1.76
738;1956.1;567.888;1.76
739;1948.78;591.571;1.76
740;1921.62;577.654;1.76
741;1906.66;601.337;1.76
742;1939.01;555.925;1.76
743;1971.06;575.701;1.76
744;1985.71;607.196;1.76
745;1990.59;548.112;1.76
746;1968.62;575.701;1.77
747;1933.82;571.795;1.77
748;1924.06;589.618;1.77
749;1948.78;567.888;1.77
750;1958.54;575.701;1.77
751;1966.17;557.878;1.77
752;1951.22;605.243;1.77
753;1921.62;579.608;1.77
