<WeldAnalyseData xmlns:i="http:www.w3.org/2001/XMLSchema-instance">
<WeldParameter>
<TimeStamp>DT#2024-01-24-14:58:21</TimeStamp>
<Generator>SG-22-10000</Generator>
<GenFreq>20</GenFreq>
<MaxForce>8000</MaxForce>
<MaxPower>10000</MaxPower>
<RunupPressure>1.5</RunupPressure>
<RunupDist>10</RunupDist>
<RunPress>0.8</RunPress>
<ShakeDelay>0.03</ShakeDelay>
<ShakeTime>0.3</ShakeTime>
<RunBackPress1>6</RunBackPress1>
<RunBackPress2>2</RunBackPress2>
<RunBackDist>1</RunBackDist>
<TrigValue>500</TrigValue>
<TrigModeUnit>W</TrigModeUnit>
<WeldModeUnit>Ws</WeldModeUnit>
<PressNr>0</PressNr>
<MaxLoss>1500</MaxLoss>
</WeldParameter>
<WeldSets>
<WeldSet>
<PressRiseTime>0</PressRiseTime>
<RunPressure>1</RunPressure>
<Amplitude>86</Amplitude>
<WeldMode>3270</WeldMode>
</WeldSet>
</WeldSets>
<WeldValue>
<WeldNr>2970</WeldNr>
<RecipeName>RickStyle</RecipeName>
<WeldTime>1682</WeldTime>
<DistDiff>2.41</DistDiff>
<DistAbs>78.12</DistAbs>
<Energy>3272</Energy>
<MaxPower>2158.92</MaxPower>
<CycleTime>6030</CycleTime>
<TrigForce>500.748</TrigForce>
<TrigDist>75.71</TrigDist>
<RunSpeed>68.9526</RunSpeed>
<MaxForce>621.113</MaxForce>
<LossPower>324.984</LossPower>
</WeldValue>
</WeldAnalyseData>
#CSV-START#
ms;Power[W];Force[N];Distance[mm]
1;0;0;0
2;0;502.701;0
3;0;502.701;0
4;0;502.701;0.0100021
5;0;502.701;0.0100021
6;0;504.654;0.0100021
7;0;504.654;0.0100021
8;0;477.065;0.0100021
9;0;419.691;0.0200043
10;0;407.971;0.0400009
11;0;370.373;0.0800018
12;20.4855;346.69;0.110001
13;79.6915;342.784;0.150002
14;153.851;321.055;0.190002
15;228.011;307.138;0.239998
16;292.1;289.315;0.279999
17;351.306;289.315;0.330002
18;410.512;287.362;0.379997
19;479.789;301.279;0.43
20;556.391;281.503;0.470001
21;632.992;299.326;0.510002
22;699.522;317.148;0.540001
23;768.799;289.315;0.580002
24;828.005;319.102;0.599998
25;884.77;319.102;0.629997
26;946.417;336.68;0.650002
27;1010.81;334.727;0.669998
28;1070.02;352.55;0.68
29;1121.9;348.643;0.690002
30;1161.27;397.961;0.700005
31;1176.22;392.102;0.709999
32;1200.64;372.326;0.709999
33;1252.52;421.644;0.720001
34;1297.07;409.925;0.720001
35;1331.56;411.878;0.730003
36;1366.35;399.915;0.730003
37;1388.33;421.644;0.739998
38;1395.95;417.737;0.739998
39;1425.56;439.467;0.75
40;1482.32;399.915;0.75
41;1524.13;419.691;0.760002
42;1556.48;451.186;0.760002
43;1580.9;399.915;0.770004
44;1578.46;421.644;0.770004
45;1571.13;419.691;0.779999
46;1593.41;433.607;0.779999
47;1637.97;419.691;0.790001
48;1667.57;431.654;0.800003
49;1689.54;411.878;0.800003
50;1694.73;459.243;0.809998
51;1682.22;435.56;0.82
52;1679.78;407.971;0.82
53;1729.22;467.055;0.830002
54;1771.03;441.42;0.840004
55;1800.63;443.373;0.849998
56;1822.91;433.607;0.849998
57;1822.91;453.383;0.860001
58;1813.14;447.279;0.870003
59;1832.98;469.008;0.870003
60;1887.3;425.55;0.879997
61;1924.23;451.186;0.889999
62;1951.39;480.972;0.889999
63;1956.27;421.644;0.900002
64;1941.63;457.289;0.900002
65;1914.46;459.243;0.910004
66;1931.55;472.915;0.910004
67;1971.23;455.336;0.919998
68;1990.76;463.149;0.919998
69;2000.83;451.186;0.93
70;1988.32;496.597;0.93
71;1953.83;469.008;0.940002
72;1939.18;453.383;0.940002
73;1985.88;512.467;0.950005
74;2020.67;479.019;0.950005
75;2040.2;475.112;0.959999
76;2052.71;469.008;0.959999
77;2035.32;486.831;0.959999
78;2010.6;482.925;0.970001
79;2015.48;498.795;0.970001
80;2069.8;461.196;0.980003
81;2099.41;486.831;0.980003
82;2114.36;510.514;0.989998
83;2111.92;451.186;0.989998
84;2082.32;490.738;1
85;2050.27;494.644;1
86;2057.6;502.701;1
87;2089.64;484.878;1.01
88;2104.59;484.878;1.01
89;2107.04;482.925;1.02
90;2084.76;522.477;1.02
91;2047.83;492.691;1.03
92;2023.11;479.019;1.03
93;2060.04;540.056;1.03
94;2096.97;502.701;1.04
95;2111.92;496.597;1.04
96;2116.8;494.644;1.04
97;2094.52;512.467;1.05
98;2064.92;514.42;1.05
99;2067.36;520.524;1.05
100;2116.8;488.784;1.06
101;2143.96;514.42;1.06
102;2158.92;526.383;1.07
103;2148.85;486.831;1.07
104;2111.92;502.701;1.07
105;2077.43;502.701;1.08
106;2079.87;516.373;1.08
107;2109.48;496.597;1.08
108;2116.8;508.56;1.09
109;2121.69;488.784;1.09
110;2094.52;532.243;1.09
111;2055.15;516.373;1.1
112;2027.99;480.972;1.1
113;2064.92;536.149;1.1
114;2092.08;516.373;1.1
115;2107.04;518.326;1.11
116;2109.48;506.607;1.11
117;2087.2;528.336;1.11
118;2055.15;514.42;1.12
119;2055.15;538.102;1.12
120;2102.15;496.597;1.12
121;2129.31;516.373;1.12
122;2136.64;548.112;1.13
123;2126.57;494.644;1.13
124;2092.08;518.326;1.13
125;2055.15;514.42;1.13
126;2057.6;528.336;1.14
127;2084.76;512.467;1.14
128;2092.08;520.524;1.14
129;2094.52;502.701;1.14
130;2069.8;550.066;1.15
131;2027.99;526.383;1.15
132;2000.83;494.644;1.15
133;2032.88;557.878;1.15
134;2062.48;528.336;1.16
135;2074.99;528.336;1.16
136;2079.87;516.373;1.16
137;2057.6;534.196;1.16
138;2025.55;528.336;1.16
139;2025.55;546.159;1.17
140;2072.25;502.701;1.17
141;2096.97;526.383;1.17
142;2107.04;552.019;1.17
143;2099.41;494.644;1.18
144;2064.92;524.43;1.18
145;2027.99;526.383;1.18
146;2030.43;536.149;1.18
147;2055.15;520.524;1.18
148;2064.92;528.336;1.19
149;2064.92;512.467;1.19
150;2040.2;553.972;1.19
151;1998.39;530.29;1.19
152;1971.23;510.514;1.19
153;2005.71;567.888;1.2
154;2035.32;532.243;1.2
155;2045.08;530.29;1.2
156;2047.83;522.477;1.2
157;2027.99;538.102;1.2
158;1998.39;536.149;1.21
159;1998.39;550.066;1.21
160;2040.2;506.607;1.21
161;2067.36;534.196;1.21
162;2077.43;557.878;1.21
163;2069.8;498.795;1.22
164;2042.64;532.243;1.22
165;2003.27;538.102;1.22
166;2005.71;546.159;1.22
167;2030.43;528.336;1.22
168;2040.2;528.336;1.22
169;2042.64;522.477;1.23
170;2020.67;561.785;1.23
171;1980.99;534.196;1.23
172;1951.39;522.477;1.23
173;1985.88;575.701;1.23
174;2015.48;538.102;1.24
175;2027.99;536.149;1.24
176;2032.88;532.243;1.24
177;2013.04;548.112;1.24
178;1978.55;548.112;1.24
179;1978.55;553.972;1.24
180;2023.11;518.326;1.25
181;2045.08;546.159;1.25
182;2057.6;565.935;1.25
183;2050.27;508.56;1.25
184;2020.67;540.056;1.25
185;1983.44;540.056;1.26
186;1988.32;550.066;1.26
187;2010.6;532.243;1.26
188;2020.67;538.102;1.26
189;2015.48;526.383;1.26
190;1998.39;567.888;1.26
191;1958.72;544.206;1.27
192;1934;522.477;1.27
193;1963.6;581.561;1.27
194;1990.76;546.159;1.27
195;2005.71;542.009;1.27
196;2005.71;534.196;1.27
197;1988.32;552.019;1.28
198;1958.72;548.112;1.28
199;1956.27;561.785;1.28
200;2000.83;520.524;1.28
201;2025.55;548.112;1.28
202;2035.32;567.888;1.28
203;2030.43;510.514;1.29
204;2000.83;548.112;1.29
205;1963.6;548.112;1.29
206;1968.79;555.925;1.29
207;1993.51;538.102;1.29
208;2000.83;544.206;1.29
209;2003.27;536.149;1.29
210;1983.44;571.795;1.3
211;1941.63;546.159;1.3
212;1916.91;530.29;1.3
213;1946.51;587.42;1.3
214;1976.11;550.066;1.3
215;1990.76;544.206;1.3
216;1990.76;540.056;1.31
217;1973.67;555.925;1.31
218;1944.07;557.878;1.31
219;1944.07;563.738;1.31
220;1988.32;530.29;1.31
221;2010.6;548.112;1.31
222;2023.11;583.514;1.31
223;2017.92;534.196;1.32
224;1985.88;546.159;1.32
225;1953.83;542.009;1.32
226;1953.83;555.925;1.32
227;1978.55;538.102;1.32
228;1983.44;548.112;1.32
229;1988.32;528.336;1.33
230;1968.79;573.748;1.33
231;1929.11;553.972;1.33
232;1904.39;526.383;1.33
233;1934;577.654;1.33
234;1963.6;557.878;1.33
235;1973.67;561.785;1.33
236;1978.55;544.206;1.33
237;1958.72;567.888;1.34
238;1934;552.019;1.34
239;1929.11;575.701;1.34
240;1973.67;534.196;1.34
241;1993.51;552.019;1.34
242;2008.16;585.467;1.34
243;2003.27;528.336;1.34
244;1973.67;552.019;1.35
245;1939.18;546.159;1.35
246;1941.63;561.785;1.35
247;1963.6;542.009;1.35
248;1971.23;555.925;1.35
249;1973.67;536.149;1.35
250;1956.27;579.608;1.35
251;1916.91;559.832;1.35
252;1894.63;528.336;1.36
253;1921.79;583.514;1.36
254;1948.95;559.832;1.36
255;1958.72;559.832;1.36
256;1963.6;552.019;1.36
257;1946.51;571.795;1.36
258;1919.35;557.878;1.36
259;1914.46;577.654;1.37
260;1958.72;534.196;1.37
261;1983.44;553.972;1.37
262;1995.95;583.514;1.37
263;1990.76;528.336;1.37
264;1963.6;557.878;1.37
265;1929.11;555.925;1.37
266;1929.11;565.935;1.37
267;1953.83;550.066;1.38
268;1958.72;559.832;1.38
269;1963.6;544.206;1.38
270;1944.07;589.618;1.38
271;1906.83;563.738;1.38
272;1884.86;538.102;1.38
273;1912.02;597.43;1.38
274;1941.63;563.738;1.38
275;1956.27;561.785;1.39
276;1958.72;555.925;1.39
277;1944.07;571.795;1.39
278;1914.46;565.935;1.39
279;1912.02;581.561;1.39
280;1956.27;538.102;1.39
281;1978.55;563.738;1.39
282;1990.76;587.42;1.39
283;1988.32;528.336;1.39
284;1956.27;561.785;1.4
285;1921.79;563.738;1.4
286;1924.23;573.748;1.4
287;1951.39;559.832;1.4
288;1956.27;559.832;1.4
289;1958.72;553.972;1.4
290;1944.07;591.571;1.4
291;1906.83;565.935;1.4
292;1882.11;548.112;1.41
293;1909.28;607.196;1.41
294;1934;565.935;1.41
295;1948.95;563.738;1.41
296;1956.27;557.878;1.41
297;1936.44;571.795;1.41
298;1906.83;575.701;1.41
299;1906.83;593.524;1.41
300;1948.95;559.832;1.41
301;1973.67;563.738;1.42
302;1985.88;601.337;1.42
303;1980.99;552.019;1.42
304;1953.83;561.785;1.42
305;1916.91;561.785;1.42
306;1921.79;577.654;1.42
307;1946.51;557.878;1.42
308;1953.83;569.842;1.42
309;1956.27;550.066;1.42
310;1936.44;589.618;1.43
311;1901.95;573.748;1.43
312;1877.23;544.206;1.43
313;1904.39;593.524;1.43
314;1931.55;579.608;1.43
315;1946.51;579.608;1.43
316;1951.39;563.738;1.43
317;1934;585.467;1.43
318;1906.83;573.748;1.44
319;1904.39;593.524;1.44
320;1946.51;555.925;1.44
321;1968.79;571.795;1.44
322;1980.99;605.243;1.44
323;1978.55;553.972;1.44
324;1951.39;571.795;1.44
325;1916.91;567.888;1.44
326;1919.35;581.561;1.44
327;1944.07;563.738;1.44
328;1951.39;577.654;1.45
329;1953.83;555.925;1.45
330;1936.44;601.337;1.45
331;1901.95;577.654;1.45
332;1874.79;548.112;1.45
333;1901.95;601.337;1.45
334;1931.55;579.608;1.45
335;1941.63;583.514;1.45
336;1948.95;569.842;1.45
337;1931.55;587.42;1.45
338;1906.83;579.608;1.46
339;1901.95;597.43;1.46
340;1944.07;553.972;1.46
341;1966.35;577.654;1.46
342;1978.55;605.243;1.46
343;1976.11;548.112;1.46
344;1948.95;573.748;1.46
345;1916.91;573.748;1.46
346;1914.46;585.467;1.46
347;1939.18;567.888;1.46
348;1946.51;577.654;1.47
349;1951.39;561.785;1.47
350;1934;607.196;1.47
351;1897.07;581.561;1.47
352;1869.91;557.878;1.47
353;1897.07;613.3;1.47
354;1926.67;583.514;1.47
355;1941.63;579.608;1.47
356;1944.07;571.795;1.47
357;1929.11;589.618;1.47
358;1901.95;581.561;1.48
359;1899.51;601.337;1.48
360;1939.18;553.972;1.48
361;1963.6;579.608;1.48
362;1971.23;605.243;1.48
363;1968.79;544.206;1.48
364;1944.07;577.654;1.48
365;1909.28;581.561;1.48
366;1912.02;589.618;1.48
367;1936.44;571.795;1.48
368;1946.51;579.608;1.48
369;1946.51;567.888;1.49
370;1929.11;603.29;1.49
371;1894.63;579.608;1.49
372;1869.91;557.878;1.49
373;1897.07;621.113;1.49
374;1924.23;581.561;1.49
375;1936.44;577.654;1.49
376;1944.07;573.748;1.49
377;1929.11;595.477;1.49
378;1899.51;579.608;1.49
379;1897.07;601.337;1.49
380;1936.44;557.878;1.5
381;1958.72;577.654;1.5
382;1968.79;607.196;1.5
383;1968.79;552.019;1.5
384;1941.63;577.654;1.5
385;1909.28;579.608;1.5
386;1906.83;589.618;1.5
387;1934;569.842;1.5
388;1941.63;579.608;1.5
389;1944.07;565.935;1.5
390;1926.67;607.196;1.5
391;1892.19;583.514;1.5
392;1865.02;555.925;1.51
393;1892.19;619.16;1.51
394;1921.79;585.467;1.51
395;1934;581.561;1.51
396;1941.63;573.748;1.51
397;1926.67;591.571;1.51
398;1899.51;583.514;1.51
399;1894.63;597.43;1.51
400;1934;557.878;1.51
401;1958.72;581.561;1.51
402;1968.79;605.243;1.51
403;1968.79;546.159;1.51
404;1944.07;577.654;1.52
405;1906.83;579.608;1.52
406;1909.28;591.571;1.52
407;1931.55;573.748;1.52
408;1941.63;577.654;1.52
409;1944.07;565.935;1.52
410;1926.67;607.196;1.52
411;1892.19;579.608;1.52
412;1865.02;559.832;1.52
413;1892.19;621.113;1.52
414;1921.79;581.561;1.52
415;1934;579.608;1.52
416;1936.44;571.795;1.53
417;1924.23;593.524;1.53
418;1897.07;581.561;1.53
419;1889.74;605.243;1.53
420;1934;571.795;1.53
421;1956.27;577.654;1.53
422;1968.79;611.347;1.53
423;1966.35;565.935;1.53
424;1939.18;571.795;1.53
425;1906.83;573.748;1.53
426;1904.39;589.618;1.53
427;1931.55;569.842;1.53
428;1941.63;577.654;1.53
429;1941.63;559.832;1.54
430;1929.11;597.43;1.54
431;1892.19;585.467;1.54
432;1865.02;550.066;1.54
433;1894.63;601.337;1.54
434;1921.79;585.467;1.54
435;1934;585.467;1.54
436;1939.18;571.795;1.54
437;1924.23;593.524;1.54
438;1899.51;581.561;1.54
439;1892.19;603.29;1.54
440;1934;563.738;1.54
441;1956.27;577.654;1.54
442;1971.23;611.347;1.55
443;1968.79;557.878;1.55
444;1944.07;575.701;1.55
445;1909.28;575.701;1.55
446;1909.28;591.571;1.55
447;1934;567.888;1.55
448;1939.18;579.608;1.55
449;1941.63;559.832;1.55
450;1929.11;605.243;1.55
451;1894.63;585.467;1.55
452;1867.47;552.019;1.55
453;1892.19;607.196;1.55
454;1921.79;587.42;1.55
455;1936.44;585.467;1.56
456;1941.63;571.795;1.56
457;1926.67;593.524;1.56
458;1901.95;583.514;1.56
459;1894.63;601.337;1.56
460;1936.44;557.878;1.56
461;1958.72;577.654;1.56
462;1971.23;609.149;1.56
463;1971.23;553.972;1.56
464;1944.07;577.654;1.56
465;1909.28;575.701;1.56
466;1909.28;587.42;1.56
467;1939.18;571.795;1.56
468;1944.07;579.608;1.56
469;1946.51;561.785;1.57
470;1931.55;607.196;1.57
471;1897.07;583.514;1.57
472;1869.91;557.878;1.57
473;1897.07;615.253;1.57
474;1924.23;583.514;1.57
475;1936.44;583.514;1.57
476;1941.63;571.795;1.57
477;1931.55;589.618;1.57
478;1901.95;583.514;1.57
479;1897.07;599.384;1.57
480;1939.18;555.925;1.57
481;1963.6;579.608;1.57
482;1976.11;605.243;1.57
483;1976.11;548.112;1.58
484;1946.51;579.608;1.58
485;1916.91;579.608;1.58
486;1912.02;589.618;1.58
487;1936.44;573.748;1.58
488;1946.51;579.608;1.58
489;1951.39;565.935;1.58
490;1934;605.243;1.58
491;1899.51;583.514;1.58
492;1872.35;557.878;1.58
493;1897.07;619.16;1.58
494;1924.23;591.571;1.58
495;1939.18;587.42;1.58
496;1944.07;571.795;1.59
497;1929.11;593.524;1.59
498;1904.39;583.514;1.59
499;1897.07;605.243;1.59
500;1936.44;573.748;1.59
501;1961.16;575.701;1.59
502;1973.67;611.347;1.59
503;1976.11;567.888;1.59
504;1948.95;571.795;1.59
505;1914.46;571.795;1.59
506;1912.02;589.618;1.59
507;1936.44;569.842;1.59
508;1946.51;577.654;1.59
509;1948.95;557.878;1.59
510;1934;595.477;1.59
511;1901.95;585.467;1.6
512;1872.35;552.019;1.6
513;1897.07;601.337;1.6
514;1929.11;587.42;1.6
515;1939.18;589.618;1.6
516;1948.95;571.795;1.6
517;1934;595.477;1.6
518;1906.83;583.514;1.6
519;1899.51;605.243;1.6
520;1941.63;565.935;1.6
521;1968.79;575.701;1.6
522;1978.55;613.3;1.6
523;1978.55;559.832;1.6
524;1951.39;573.748;1.6
525;1914.46;573.748;1.61
526;1914.46;589.618;1.61
527;1941.63;569.842;1.61
528;1948.95;581.561;1.61
529;1951.39;557.878;1.61
530;1939.18;605.243;1.61
531;1904.39;585.467;1.61
532;1872.35;550.066;1.61
533;1899.51;607.196;1.61
534;1929.11;585.467;1.61
535;1941.63;585.467;1.61
536;1948.95;573.748;1.61
537;1934;595.477;1.61
538;1906.83;579.608;1.61
539;1901.95;603.29;1.62
540;1944.07;559.832;1.62
541;1968.79;579.608;1.62
542;1980.99;609.149;1.62
543;1983.44;555.925;1.62
544;1956.27;579.608;1.62
545;1921.79;575.701;1.62
546;1916.91;591.571;1.62
547;1944.07;569.842;1.62
548;1951.39;581.561;1.62
549;1953.83;565.935;1.62
550;1941.63;609.149;1.62
551;1906.83;583.514;1.62
552;1874.79;555.925;1.62
553;1901.95;613.3;1.62
554;1931.55;585.467;1.63
555;1944.07;581.561;1.63
556;1951.39;571.795;1.63
557;1939.18;591.571;1.63
558;1909.28;583.514;1.63
559;1904.39;601.337;1.63
560;1946.51;555.925;1.63
561;1968.79;579.608;1.63
562;1983.44;607.196;1.63
563;1983.44;550.066;1.63
564;1958.72;577.654;1.63
565;1921.79;581.561;1.63
566;1919.35;589.618;1.63
567;1944.07;571.795;1.63
568;1953.83;577.654;1.63
569;1956.27;563.738;1.63
570;1944.07;609.149;1.64
571;1906.83;581.561;1.64
572;1879.67;552.019;1.64
573;1904.39;605.243;1.64
574;1936.44;583.514;1.64
575;1946.51;585.467;1.64
576;1953.83;573.748;1.64
577;1944.07;595.477;1.64
578;1912.02;581.561;1.64
579;1906.83;603.29;1.64
580;1946.51;557.878;1.64
581;1973.67;579.608;1.64
582;1985.88;611.347;1.64
583;1985.88;553.972;1.64
584;1958.72;575.701;1.64
585;1924.23;573.748;1.65
586;1921.79;589.618;1.65
587;1946.51;569.842;1.65
588;1956.27;579.608;1.65
589;1958.72;561.785;1.65
590;1946.51;611.347;1.65
591;1909.28;581.561;1.65
592;1879.67;552.019;1.65
593;1906.83;611.347;1.65
594;1936.44;583.514;1.65
595;1951.39;583.514;1.65
596;1956.27;573.748;1.65
597;1944.07;591.571;1.65
598;1914.46;581.561;1.65
599;1906.83;599.384;1.65
600;1951.39;555.925;1.66
601;1976.11;579.608;1.66
602;1990.76;607.196;1.66
603;1988.32;548.112;1.66
604;1963.6;577.654;1.66
605;1926.67;579.608;1.66
606;1924.23;591.571;1.66
607;1948.95;571.795;1.66
608;1956.27;577.654;1.66
609;1961.16;565.935;1.66
610;1946.51;605.243;1.66
611;1912.02;579.608;1.66
612;1879.67;550.066;1.66
613;1906.83;589.618;1.66
614;1939.18;591.571;1.66
615;1951.39;591.571;1.66
616;1956.27;571.795;1.66
617;1944.07;591.571;1.67
618;1916.91;583.514;1.67
619;1909.28;603.29;1.67
620;1948.95;573.748;1.67
621;1973.67;573.748;1.67
622;1988.32;611.347;1.67
623;1990.76;567.888;1.67
624;1963.6;569.842;1.67
625;1926.67;571.795;1.67
626;1924.23;589.618;1.67
627;1953.83;569.842;1.67
628;1958.72;575.701;1.67
629;1963.6;555.925;1.67
630;1948.95;593.524;1.67
631;1912.02;585.467;1.67
632;1884.86;548.112;1.67
633;1912.02;595.477;1.68
634;1944.07;589.618;1.68
635;1953.83;587.42;1.68
636;1958.72;571.795;1.68
637;1951.39;591.571;1.68
638;1919.35;581.561;1.68
639;1912.02;603.29;1.68
640;1953.83;565.935;1.68
641;1978.55;575.701;1.68
642;1990.76;611.347;1.68
643;1993.51;555.925;1.68
644;1963.6;571.795;1.68
645;1929.11;569.842;1.68
646;1924.23;587.42;1.68
647;1953.83;565.935;1.68
648;1963.6;579.608;1.68
649;1966.35;555.925;1.69
650;1953.83;601.337;1.69
651;1916.91;581.561;1.69
652;1887.3;546.159;1.69
653;1909.28;603.29;1.69
654;1939.18;583.514;1.69
655;1953.83;583.514;1.69
656;1963.6;571.795;1.69
657;1946.51;589.618;1.69
658;1919.35;579.608;1.69
659;1912.02;599.384;1.69
660;1951.39;557.878;1.69
661;1980.99;573.748;1.69
662;1993.51;607.196;1.69
663;1993.51;552.019;1.69
664;1966.35;573.748;1.69
665;1934;571.795;1.69
666;1924.23;587.42;1.7
667;1953.83;565.935;1.7
668;1958.72;577.654;1.7
669;1966.35;559.832;1.7
670;1953.83;605.243;1.7
671;1916.91;581.561;1.7
672;1887.3;550.066;1.7
673;1909.28;605.243;1.7
674;1941.63;581.561;1.7
675;1956.27;577.654;1.7
676;1963.6;569.842;1.7
677;1951.39;587.42;1.7
678;1919.35;577.654;1.7
679;1912.02;597.43;1.7
680;1953.83;552.019;1.7
681;1978.55;573.748;1.7
682;1995.95;603.29;1.71
683;1995.95;546.159;1.71
684;1968.79;573.748;1.71
685;1936.44;575.701;1.71
686;1926.67;587.42;1.71
687;1953.83;567.888;1.71
688;1966.35;575.701;1.71
689;1968.79;553.972;1.71
690;1956.27;587.42;1.71
691;1919.35;583.514;1.71
692;1887.3;546.159;1.71
693;1912.02;585.467;1.71
694;1946.51;591.571;1.71
695;1958.72;583.514;1.71
696;1966.35;567.888;1.71
697;1953.83;587.42;1.72
698;1921.79;579.608;1.72
699;1916.91;599.384;1.72
700;1958.72;569.842;1.72
701;1980.99;571.795;1.72
702;1998.39;607.196;1.72
703;1998.39;565.935;1.72
704;1973.67;565.935;1.72
705;1939.18;569.842;1.72
706;1931.55;583.514;1.72
707;1961.16;565.935;1.72
708;1966.35;573.748;1.72
709;1971.23;553.972;1.72
710;1958.72;589.618;1.72
711;1924.23;581.561;1.72
712;1894.63;544.206;1.72
713;1912.02;589.618;1.72
714;1946.51;585.467;1.73
715;1958.72;581.561;1.73
716;1963.6;565.935;1.73
717;1953.83;587.42;1.73
718;1926.67;577.654;1.73
719;1916.91;599.384;1.73
720;1953.83;563.738;1.73
721;1983.44;571.795;1.73
722;1998.39;607.196;1.73
723;1998.39;555.925;1.73
724;1973.67;569.842;1.73
725;1939.18;567.888;1.73
726;1931.55;585.467;1.73
727;1961.16;563.738;1.73
728;1968.79;575.701;1.73
729;1973.67;553.972;1.73
730;1956.27;599.384;1.74
731;1921.79;579.608;1.74
732;1894.63;546.159;1.74
733;1914.46;597.43;1.74
734;1946.51;581.561;1.74
735;1961.16;581.561;1.74
736;1966.35;565.935;1.74
737;1956.27;587.42;1.74
738;1929.11;577.654;1.74
739;1914.46;599.384;1.74
740;1956.27;555.925;1.74
741;1985.88;571.795;1.74
742;1998.39;607.196;1.74
743;1998.39;553.972;1.74
744;1976.11;569.842;1.74
745;1939.18;569.842;1.74
746;1934;583.514;1.75
747;1958.72;565.935;1.75
748;1966.35;573.748;1.75
749;1973.67;555.925;1.75
750;1961.16;601.337;1.75
751;1926.67;579.608;1.75
752;1894.63;548.112;1.75
753;1916.91;605.243;1.75
754;1951.39;577.654;1.75
755;1961.16;579.608;1.75
