<WeldAnalyseData xmlns:i="http:www.w3.org/2001/XMLSchema-instance">
<WeldParameter>
<TimeStamp>DT#2023-12-05-14:28:12</TimeStamp>
<Generator>SG-22-10000</Generator>
<GenFreq>20</GenFreq>
<MaxForce>8000</MaxForce>
<MaxPower>10000</MaxPower>
<RunupPressure>1.5</RunupPressure>
<RunupDist>10</RunupDist>
<RunPress>0.8</RunPress>
<ShakeDelay>0.03</ShakeDelay>
<ShakeTime>0.3</ShakeTime>
<RunBackPress1>6</RunBackPress1>
<RunBackPress2>2</RunBackPress2>
<RunBackDist>1</RunBackDist>
<TrigValue>500</TrigValue>
<TrigModeUnit>W</TrigModeUnit>
<WeldModeUnit>Ws</WeldModeUnit>
<PressNr>0</PressNr>
<MaxLoss>1500</MaxLoss>
</WeldParameter>
<WeldSets>
<WeldSet>
<PressRiseTime>0</PressRiseTime>
<RunPressure>1</RunPressure>
<Amplitude>86</Amplitude>
<WeldMode>3270</WeldMode>
</WeldSet>
</WeldSets>
<WeldValue>
<WeldNr>2418</WeldNr>
<RecipeName>RickStyle</RecipeName>
<WeldTime>1832</WeldTime>
<DistDiff>3.74</DistDiff>
<DistAbs>78.31</DistAbs>
<Energy>3270.8</Energy>
<MaxPower>2060.86</MaxPower>
<CycleTime>6150</CycleTime>
<TrigForce>504.654</TrigForce>
<TrigDist>74.57</TrigDist>
<RunSpeed>68.2251</RunSpeed>
<MaxForce>605.243</MaxForce>
<LossPower>247.562</LossPower>
</WeldValue>
</WeldAnalyseData>
#CSV-START#
ms;Power[W];Force[N];Distance[mm]
1;0;0;0
2;0;506.607;0.0100021
3;0;506.607;0.0100021
4;0;506.607;0.0100021
5;0;508.56;0.0100021
6;0;508.56;0.0100021
7;0;506.607;0.0100021
8;0;500.748;0.0100021
9;0;482.925;0.0199966
10;0;469.008;0.0299988
11;16.4228;455.336;0.0400009
12;21.3057;447.279;0.0500031
13;31.3768;431.654;0.0699997
14;50.9087;447.279;0.0800018
15;75.6287;433.607;0.0999985
16;100.349;421.644;0.110001
17;129.952;433.607;0.120003
18;157.113;421.644;0.139999
19;179.392;417.737;0.150002
20;201.67;413.831;0.160004
21;221.507;419.691;0.18
22;243.786;417.737;0.190002
23;263.318;427.503;0.199997
24;290.479;407.971;0.220001
25;315.199;419.691;0.230003
26;335.036;429.456;0.239998
27;349.685;409.925;0.260002
28;364.639;419.691;0.269997
29;369.522;423.597;0.279999
30;374.405;431.654;0.290001
31;379.593;419.691;0.300003
32;389.359;425.55;0.32
33;394.242;417.737;0.330002
34;396.683;439.467;0.340004
35;399.125;427.503;0.349998
36;394.242;417.737;0.360001
37;396.683;441.42;0.370003
38;406.755;431.654;0.379997
39;411.638;427.503;0.389999
40;416.52;421.644;0.400002
41;418.962;435.56;0.419998
42;416.52;435.56;0.43
43;414.079;447.279;0.440002
44;426.286;423.597;0.449997
45;433.611;435.56;0.459999
46;433.611;447.279;0.470001
47;436.357;427.503;0.480003
48;433.611;437.513;0.489998
49;431.169;437.513;0.5
50;426.286;441.42;0.510002
51;421.403;433.607;0.519997
52;423.845;437.513;0.529999
53;423.845;425.55;0.540001
54;423.845;451.186;0.550003
55;421.403;443.373;0.559998
56;414.079;431.654;0.580002
57;414.079;457.289;0.590004
58;426.286;445.326;0.599998
59;428.728;447.279;0.610001
60;433.611;441.42;0.620003
61;436.357;451.186;0.629997
62;438.799;449.232;0.639999
63;438.799;463.149;0.650002
64;448.565;437.513;0.660004
65;460.772;451.186;0.669998
66;468.402;461.196;0.68
67;473.285;441.42;0.690002
68;473.285;453.383;0.699997
69;470.843;453.383;0.699997
70;463.519;459.243;0.709999
71;465.96;449.232;0.720001
72;468.402;455.336;0.730003
73;468.402;441.42;0.739998
74;470.843;472.915;0.75
75;468.402;463.149;0.760002
76;460.772;451.186;0.769997
77;465.96;463.149;0.779999
78;478.168;463.149;0.790001
79;483.051;463.149;0.800003
80;487.934;459.243;0.809998
81;493.122;469.008;0.82
82;493.122;465.102;0.82
83;498.005;472.915;0.830002
84;512.654;465.102;0.840004
85;525.166;463.149;0.849998
86;532.491;477.065;0.860001
87;534.932;463.149;0.870003
88;534.932;465.102;0.879997
89;532.491;467.055;0.889999
90;527.608;472.915;0.900002
91;534.932;461.196;0.900002
92;534.932;467.055;0.910004
93;534.932;455.336;0.919998
94;539.815;480.972;0.93
95;532.491;472.915;0.940002
96;525.166;459.243;0.949997
97;527.608;480.972;0.959999
98;537.374;475.112;0.970001
99;542.257;472.915;0.980003
100;545.003;469.008;0.980003
101;547.445;480.972;0.989998
102;545.003;477.065;1
103;545.003;490.738;1.01
104;557.211;465.102;1.02
105;572.165;472.915;1.03
106;574.606;486.831;1.04
107;574.606;467.055;1.04
108;569.418;475.112;1.05
109;562.094;475.112;1.06
110;552.328;482.925;1.07
111;552.328;470.962;1.08
112;549.886;477.065;1.09
113;549.886;463.149;1.1
114;549.886;492.691;1.1
115;542.257;479.019;1.11
116;532.491;469.008;1.12
117;534.932;488.784;1.13
118;542.257;480.972;1.14
119;549.886;480.972;1.15
120;552.328;472.915;1.15
121;557.211;482.925;1.16
122;554.769;480.972;1.17
123;557.211;496.597;1.18
124;574.606;465.102;1.19
125;591.697;479.019;1.2
126;601.768;490.738;1.21
127;606.651;465.102;1.22
128;606.651;480.972;1.23
129;599.326;477.065;1.24
130;594.138;484.878;1.25
131;596.58;472.915;1.26
132;599.326;477.065;1.26
133;601.768;461.196;1.27
134;601.768;494.644;1.28
135;596.58;479.019;1.29
136;589.255;467.055;1.31
137;594.138;492.691;1.31
138;609.092;480.972;1.32
139;616.417;475.112;1.33
140;621.3;475.112;1.34
141;626.488;482.925;1.35
142;628.929;477.065;1.36
143;633.812;486.831;1.37
144;653.649;475.112;1.38
145;670.74;467.055;1.4
146;683.252;484.878;1.41
147;690.577;469.008;1.42
148;693.018;469.008;1.43
149;688.135;472.915;1.44
150;685.694;475.112;1.45
151;690.577;461.196;1.46
152;695.46;469.008;1.48
153;695.46;455.336;1.49
154;697.901;477.065;1.5
155;690.577;470.962;1.51
156;683.252;455.336;1.52
157;690.577;475.112;1.54
158;702.784;467.055;1.55
159;715.297;465.102;1.56
160;722.621;459.243;1.57
161;727.504;475.112;1.59
162;727.504;467.055;1.6
163;729.946;480.972;1.61
164;747.341;457.289;1.62
165;767.178;461.196;1.64
166;776.944;475.112;1.65
167;784.268;453.383;1.66
168;786.71;461.196;1.67
169;779.386;461.196;1.68
170;772.061;469.008;1.69
171;779.386;451.186;1.71
172;781.827;459.243;1.72
173;791.898;445.326;1.73
174;794.34;475.112;1.74
175;784.268;461.196;1.75
176;774.503;447.279;1.77
177;786.71;472.915;1.78
178;804.106;459.243;1.79
179;816.618;459.243;1.8
180;826.384;451.186;1.81
181;836.15;469.008;1.82
182;841.033;459.243;1.83
183;848.663;477.065;1.85
184;875.824;441.42;1.86
185;902.986;455.336;1.87
186;917.634;472.915;1.88
187;930.147;445.326;1.89
188;935.03;455.336;1.9
189;932.588;455.336;1.91
190;935.03;467.055;1.92
191;952.425;447.279;1.93
192;964.633;455.336;1.94
193;979.587;439.467;1.96
194;986.911;480.972;1.97
195;986.911;463.149;1.98
196;982.028;447.279;1.99
197;1004;477.065;2
198;1033.91;461.196;2.01
199;1051;463.149;2.02
200;1068.4;453.383;2.03
201;1083.04;479.019;2.04
202;1090.67;467.055;2.05
203;1100.44;484.878;2.06
204;1134.93;457.289;2.07
205;1164.53;463.149;2.08
206;1184.37;482.925;2.08
207;1201.76;457.289;2.09
208;1204.2;469.008;2.1
209;1194.13;469.008;2.11
210;1196.57;482.925;2.12
211;1216.41;463.149;2.12
212;1233.81;472.915;2.13
213;1246.01;455.336;2.14
214;1250.9;494.644;2.15
215;1241.13;480.972;2.15
216;1228.92;467.055;2.16
217;1253.64;496.597;2.17
218;1288.13;480.972;2.18
219;1302.78;486.831;2.18
220;1317.73;470.962;2.19
221;1332.38;498.795;2.2
222;1332.38;486.831;2.2
223;1335.13;506.607;2.21
224;1372.05;469.008;2.22
225;1401.66;486.831;2.22
226;1421.49;504.654;2.23
227;1438.59;477.065;2.24
228;1433.7;492.691;2.24
229;1416.61;490.738;2.25
230;1416.61;506.607;2.25
231;1438.59;494.644;2.26
232;1453.54;490.738;2.27
233;1463.31;479.019;2.27
234;1463.31;504.654;2.28
235;1448.66;504.654;2.28
236;1428.82;486.831;2.29
237;1448.66;506.607;2.29
238;1478.26;506.607;2.3
239;1492.91;504.654;2.3
240;1507.86;492.691;2.31
241;1512.75;512.467;2.32
242;1502.98;510.514;2.32
243;1505.42;528.336;2.32
244;1542.35;504.654;2.33
245;1569.51;502.701;2.33
246;1586.91;528.336;2.34
247;1594.23;500.748;2.34
248;1586.91;506.607;2.35
249;1564.63;508.56;2.35
250;1557.3;522.477;2.36
251;1576.83;500.748;2.36
252;1589.35;508.56;2.37
253;1594.23;488.784;2.37
254;1589.35;526.383;2.37
255;1567.07;520.524;2.38
256;1539.91;494.644;2.38
257;1562.19;526.383;2.39
258;1591.79;520.524;2.39
259;1601.55;518.326;2.4
260;1614.07;502.701;2.4
261;1616.51;534.196;2.41
262;1604;520.524;2.41
263;1604;542.009;2.41
264;1641.23;508.56;2.42
265;1668.39;516.373;2.42
266;1683.04;540.056;2.43
267;1693.11;504.654;2.43
268;1680.6;518.326;2.43
269;1658.32;516.373;2.44
270;1650.99;532.243;2.44
271;1668.39;506.607;2.45
272;1678.16;520.524;2.45
273;1683.04;498.795;2.45
274;1675.71;540.056;2.46
275;1650.99;526.383;2.46
276;1628.72;510.514;2.47
277;1646.11;540.056;2.47
278;1675.71;526.383;2.47
279;1685.48;528.336;2.48
280;1700.43;512.467;2.48
281;1697.99;542.009;2.48
282;1685.48;526.383;2.49
283;1680.6;550.066;2.49
284;1717.83;510.514;2.5
285;1744.99;522.477;2.5
286;1759.64;540.056;2.5
287;1764.52;512.467;2.51
288;1749.87;526.383;2.51
289;1725.15;524.43;2.51
290;1712.64;540.056;2.52
291;1732.48;512.467;2.52
292;1739.8;530.29;2.52
293;1744.99;508.56;2.53
294;1734.92;530.29;2.53
295;1705.32;538.102;2.53
296;1678.16;514.42;2.54
297;1700.43;536.149;2.54
298;1730.04;538.102;2.54
299;1742.55;532.243;2.55
300;1749.87;520.524;2.55
301;1747.43;538.102;2.55
302;1730.04;534.196;2.56
303;1725.15;555.925;2.56
304;1766.96;530.29;2.56
305;1791.68;524.43;2.57
306;1809.08;552.019;2.57
307;1811.52;524.43;2.57
308;1796.57;528.336;2.57
309;1764.52;530.29;2.58
310;1757.2;546.159;2.58
311;1774.59;526.383;2.58
312;1784.36;530.29;2.59
313;1786.8;514.42;2.59
314;1777.04;542.009;2.59
315;1742.55;540.056;2.59
316;1717.83;518.326;2.6
317;1737.36;546.159;2.6
318;1766.96;540.056;2.6
319;1779.48;542.009;2.61
320;1789.24;524.43;2.61
321;1784.36;553.972;2.61
322;1764.52;540.056;2.61
323;1759.64;563.738;2.62
324;1801.76;530.29;2.62
325;1823.73;532.243;2.62
326;1838.68;559.832;2.62
327;1843.57;526.383;2.63
328;1826.48;534.196;2.63
329;1796.57;536.149;2.63
330;1789.24;553.972;2.63
331;1811.52;524.43;2.64
332;1818.85;538.102;2.64
333;1823.73;512.467;2.64
334;1809.08;555.925;2.64
335;1777.04;546.159;2.65
336;1754.76;526.383;2.65
337;1777.04;553.972;2.65
338;1809.08;542.009;2.65
339;1821.29;546.159;2.66
340;1826.48;530.29;2.66
341;1823.73;559.832;2.66
342;1806.64;544.206;2.66
343;1801.76;565.935;2.66
344;1841.12;528.336;2.67
345;1868.29;538.102;2.67
346;1883.24;559.832;2.67
347;1885.68;528.336;2.67
348;1865.84;542.009;2.67
349;1836.24;538.102;2.68
350;1828.92;553.972;2.68
351;1850.89;526.383;2.68
352;1863.4;544.206;2.68
353;1863.4;522.477;2.68
354;1850.89;569.842;2.69
355;1818.85;550.066;2.69
356;1791.68;526.383;2.69
357;1816.4;557.878;2.69
358;1846.01;548.112;2.7
359;1860.96;550.066;2.7
360;1865.84;530.29;2.7
361;1860.96;565.935;2.7
362;1838.68;548.112;2.7
363;1833.8;573.748;2.7
364;1875.61;538.102;2.71
365;1902.77;542.009;2.71
366;1917.73;563.738;2.71
367;1917.73;536.149;2.71
368;1895.45;548.112;2.71
369;1865.84;542.009;2.72
370;1858.52;563.738;2.72
371;1883.24;530.29;2.72
372;1890.56;544.206;2.72
373;1895.45;526.383;2.72
374;1888.12;567.888;2.73
375;1860.96;553.972;2.73
376;1828.92;536.149;2.73
377;1828.92;565.935;2.73
378;1868.29;553.972;2.73
379;1888.12;552.019;2.73
380;1900.33;538.102;2.74
381;1897.89;569.842;2.74
382;1878.05;552.019;2.74
383;1860.96;575.701;2.74
384;1885.68;530.29;2.74
385;1925.05;548.112;2.74
386;1942.45;567.888;2.75
387;1947.33;548.112;2.75
388;1937.56;544.206;2.75
389;1905.21;553.972;2.75
390;1883.24;567.888;2.75
391;1900.33;557.878;2.75
392;1917.73;550.066;2.76
393;1922.61;530.29;2.76
394;1915.28;555.925;2.76
395;1890.56;561.785;2.76
396;1853.64;538.102;2.76
397;1858.52;561.785;2.76
398;1895.45;561.785;2.77
399;1912.84;555.925;2.77
400;1922.61;540.056;2.77
401;1922.61;563.738;2.77
402;1902.77;557.878;2.77
403;1883.24;579.608;2.77
404;1905.21;552.019;2.78
405;1947.33;548.112;2.78
406;1962.28;575.701;2.78
407;1972.05;548.112;2.78
408;1957.09;553.972;2.78
409;1925.05;553.972;2.78
410;1902.77;571.795;2.79
411;1922.61;548.112;2.79
412;1937.56;552.019;2.79
413;1940;534.196;2.79
414;1937.56;569.842;2.79
415;1905.21;565.935;2.79
416;1873.17;538.102;2.79
417;1878.05;571.795;2.8
418;1915.28;561.785;2.8
419;1932.37;563.738;2.8
420;1944.89;544.206;2.8
421;1940;577.654;2.8
422;1920.17;563.738;2.8
423;1900.33;583.514;2.81
424;1925.05;552.019;2.81
425;1967.17;553.972;2.81
426;1981.81;579.608;2.81
427;1986.7;548.112;2.81
428;1972.05;555.925;2.81
429;1942.45;555.925;2.81
430;1917.73;575.701;2.82
431;1937.56;548.112;2.82
432;1952.21;557.878;2.82
433;1954.65;536.149;2.82
434;1949.77;575.701;2.82
435;1920.17;565.935;2.82
436;1883.24;544.206;2.82
437;1888.12;579.608;2.83
438;1925.05;563.738;2.83
439;1942.45;567.888;2.83
440;1952.21;550.066;2.83
441;1947.33;583.514;2.83
442;1925.05;565.935;2.83
443;1902.77;589.618;2.83
444;1935.12;548.112;2.84
445;1969.61;561.785;2.84
446;1986.7;583.514;2.84
447;1994.33;548.112;2.84
448;1979.37;563.738;2.84
449;1947.33;563.738;2.84
450;1925.05;579.608;2.84
451;1942.45;565.935;2.84
452;1954.65;557.878;2.85
453;1964.72;544.206;2.85
454;1954.65;565.935;2.85
455;1927.49;575.701;2.85
456;1890.56;548.112;2.85
457;1895.45;569.842;2.85
458;1932.37;573.748;2.85
459;1949.77;565.935;2.85
460;1962.28;550.066;2.86
461;1957.09;569.842;2.86
462;1932.37;569.842;2.86
463;1915.28;587.42;2.86
464;1940;563.738;2.86
465;1979.37;555.925;2.86
466;1994.33;583.514;2.86
467;2001.65;559.832;2.86
468;1984.26;559.832;2.87
469;1952.21;563.738;2.87
470;1929.93;581.561;2.87
471;1949.77;559.832;2.87
472;1964.72;561.785;2.87
473;1969.61;538.102;2.87
474;1962.28;573.748;2.87
475;1929.93;571.795;2.87
476;1895.45;548.112;2.87
477;1902.77;579.608;2.88
478;1940;571.795;2.88
479;1954.65;571.795;2.88
480;1964.72;550.066;2.88
481;1962.28;579.608;2.88
482;1940;569.842;2.88
483;1920.17;595.477;2.88
484;1949.77;559.832;2.88
485;1984.26;561.785;2.88
486;2001.65;589.618;2.89
487;2008.98;557.878;2.89
488;1986.7;565.935;2.89
489;1957.09;561.785;2.89
490;1935.12;579.608;2.89
491;1954.65;552.019;2.89
492;1967.17;563.738;2.89
493;1972.05;542.009;2.89
494;1964.72;581.561;2.9
495;1932.37;573.748;2.9
496;1897.89;550.066;2.9
497;1905.21;581.561;2.9
498;1944.89;571.795;2.9
499;1962.28;571.795;2.9
500;1972.05;553.972;2.9
501;1964.72;587.42;2.9
502;1942.45;567.888;2.9
503;1922.61;595.477;2.91
504;1952.21;553.972;2.91
505;1989.44;565.935;2.91
506;2004.09;585.467;2.91
507;2011.42;553.972;2.91
508;1994.33;565.935;2.91
509;1959.54;561.785;2.91
510;1940;583.514;2.91
511;1957.09;557.878;2.91
512;1969.61;565.935;2.92
513;1976.93;544.206;2.92
514;1967.17;579.608;2.92
515;1935.12;573.748;2.92
516;1900.33;550.066;2.92
517;1907.96;583.514;2.92
518;1944.89;573.748;2.92
519;1959.54;573.748;2.92
520;1972.05;553.972;2.92
521;1964.72;587.42;2.93
522;1937.56;571.795;2.93
523;1920.17;595.477;2.93
524;1949.77;559.832;2.93
525;1986.7;563.738;2.93
526;2004.09;587.42;2.93
527;2008.98;555.925;2.93
528;1986.7;567.888;2.93
529;1957.09;563.738;2.93
530;1937.56;581.561;2.94
531;1954.65;550.066;2.94
532;1967.17;565.935;2.94
533;1972.05;544.206;2.94
534;1964.72;585.467;2.94
535;1929.93;575.701;2.94
536;1893.01;552.019;2.94
537;1902.77;585.467;2.94
538;1937.56;571.795;2.94
539;1957.09;573.748;2.95
540;1964.72;555.925;2.95
541;1957.09;567.888;2.95
542;1935.12;573.748;2.95
543;1915.28;589.618;2.95
544;1949.77;573.748;2.95
545;1981.81;557.878;2.95
546;2001.65;585.467;2.95
547;2004.09;567.888;2.95
548;1986.7;563.738;2.95
549;1952.21;567.888;2.96
550;1932.37;579.608;2.96
551;1952.21;573.748;2.96
552;1964.72;563.738;2.96
553;1969.61;548.112;2.96
554;1959.54;573.748;2.96
555;1929.93;581.561;2.96
556;1890.56;552.019;2.96
557;1902.77;577.654;2.96
558;1937.56;577.654;2.96
559;1952.21;573.748;2.97
560;1962.28;555.925;2.97
561;1957.09;571.795;2.97
562;1929.93;571.795;2.97
563;1915.28;595.477;2.97
564;1947.33;569.842;2.97
565;1981.81;563.738;2.97
566;1996.77;593.524;2.97
567;1999.21;561.785;2.97
568;1981.81;567.888;2.97
569;1949.77;567.888;2.98
570;1929.93;585.467;2.98
571;1949.77;565.935;2.98
572;1964.72;565.935;2.98
573;1967.17;546.159;2.98
574;1957.09;577.654;2.98
575;1925.05;579.608;2.98
576;1888.12;552.019;2.98
577;1897.89;581.561;2.98
578;1935.12;573.748;2.98
579;1947.33;573.748;2.99
580;1962.28;555.925;2.99
581;1952.21;585.467;2.99
582;1932.37;573.748;2.99
583;1915.28;599.384;2.99
584;1947.33;563.738;2.99
585;1981.81;565.935;2.99
586;1999.21;593.524;2.99
587;2004.09;559.832;2.99
588;1984.26;569.842;2.99
589;1947.33;565.935;2.99
590;1932.37;583.514;3
591;1952.21;557.878;3
592;1964.72;569.842;3
593;1969.61;546.159;3
594;1959.54;583.514;3
595;1927.49;577.654;3
596;1895.45;553.972;3
597;1905.21;585.467;3
598;1942.45;575.701;3
599;1959.54;577.654;3
600;1967.17;559.832;3
601;1962.28;593.524;3.01
602;1937.56;573.748;3.01
603;1917.73;589.618;3.01
604;1949.77;579.608;3.01
605;1981.81;559.832;3.01
606;1996.77;585.467;3.01
607;2001.65;569.842;3.01
608;1981.81;565.935;3.01
609;1947.33;571.795;3.01
610;1929.93;587.42;3.01
611;1949.77;577.654;3.01
612;1964.72;567.888;3.02
613;1967.17;552.019;3.02
614;1959.54;571.795;3.02
615;1929.93;583.514;3.02
616;1893.01;557.878;3.02
617;1905.21;577.654;3.02
618;1944.89;581.561;3.02
619;1964.72;573.748;3.02
620;1969.61;555.925;3.02
621;1964.72;571.795;3.02
622;1940;577.654;3.02
623;1922.61;595.477;3.03
624;1954.65;573.748;3.03
625;1984.26;561.785;3.03
626;1999.21;591.571;3.03
627;2004.09;567.888;3.03
628;1984.26;567.888;3.03
629;1952.21;569.842;3.03
630;1932.37;587.42;3.03
631;1957.09;573.748;3.03
632;1972.05;569.842;3.03
633;1974.49;550.066;3.03
634;1964.72;579.608;3.03
635;1935.12;581.561;3.04
636;1900.33;555.925;3.04
637;1915.28;583.514;3.04
638;1954.65;577.654;3.04
639;1967.17;577.654;3.04
640;1979.37;559.832;3.04
641;1972.05;589.618;3.04
642;1947.33;575.701;3.04
643;1929.93;597.43;3.04
644;1962.28;569.842;3.04
645;1991.89;567.888;3.04
646;2008.98;593.524;3.04
647;2013.86;565.935;3.05
648;1991.89;573.748;3.05
649;1957.09;569.842;3.05
650;1942.45;589.618;3.05
651;1964.72;561.785;3.05
652;1979.37;569.842;3.05
653;1984.26;548.112;3.05
654;1974.49;585.467;3.05
655;1940;579.608;3.05
656;1907.96;555.925;3.05
657;1925.05;589.618;3.05
658;1959.54;577.654;3.05
659;1974.49;579.608;3.06
660;1984.26;559.832;3.06
661;1979.37;595.477;3.06
662;1952.21;575.701;3.06
663;1937.56;601.337;3.06
664;1972.05;563.738;3.06
665;2001.65;569.842;3.06
666;2016.61;595.477;3.06
667;2021.49;567.888;3.06
668;1999.21;571.795;3.06
669;1967.17;571.795;3.06
670;1949.77;589.618;3.06
671;1974.49;567.888;3.06
672;1986.7;571.795;3.07
673;1989.44;548.112;3.07
674;1981.81;579.608;3.07
675;1947.33;583.514;3.07
676;1915.28;553.972;3.07
677;1935.12;585.467;3.07
678;1969.61;577.654;3.07
679;1984.26;579.608;3.07
680;1994.33;559.832;3.07
681;1986.7;593.524;3.07
682;1959.54;575.701;3.07
683;1944.89;605.243;3.07
684;1979.37;567.888;3.07
685;2011.42;569.842;3.08
686;2028.81;595.477;3.08
687;2028.81;565.935;3.08
688;2008.98;573.748;3.08
689;1974.49;571.795;3.08
690;1959.54;587.42;3.08
691;1981.81;559.832;3.08
692;1994.33;569.842;3.08
693;1996.77;548.112;3.08
694;1984.26;587.42;3.08
695;1952.21;579.608;3.08
696;1917.73;557.878;3.08
697;1937.56;577.654;3.09
698;1976.93;587.42;3.09
699;1989.44;573.748;3.09
700;1999.21;561.785;3.09
701;1989.44;573.748;3.09
702;1964.72;581.561;3.09
703;1952.21;595.477;3.09
704;1984.26;583.514;3.09
705;2019.05;561.785;3.09
706;2033.7;589.618;3.09
707;2033.7;573.748;3.09
708;2013.86;567.888;3.09
709;1979.37;575.701;3.09
710;1964.72;587.42;3.09
711;1984.26;579.608;3.1
712;1999.21;571.795;3.1
713;1999.21;553.972;3.1
714;1989.44;573.748;3.1
715;1957.09;589.618;3.1
716;1927.49;559.832;3.1
717;1944.89;579.608;3.1
718;1981.81;581.561;3.1
719;1996.77;577.654;3.1
720;2004.09;559.832;3.1
721;1996.77;575.701;3.1
722;1972.05;577.654;3.1
723;1957.09;597.43;3.1
724;1989.44;577.654;3.1
725;2021.49;565.935;3.1
726;2036.14;593.524;3.11
727;2036.14;569.842;3.11
728;2013.86;569.842;3.11
729;1981.81;571.795;3.11
730;1967.17;589.618;3.11
731;1986.7;573.748;3.11
732;2004.09;569.842;3.11
733;2006.53;550.066;3.11
734;1994.33;579.608;3.11
735;1962.28;585.467;3.11
736;1929.93;553.972;3.11
737;1947.33;583.514;3.11
738;1984.26;579.608;3.11
739;1994.33;579.608;3.11
740;2006.53;559.832;3.11
741;2001.65;585.467;3.11
742;1976.93;577.654;3.12
743;1957.09;601.337;3.12
744;1984.26;571.795;3.12
745;2021.49;569.842;3.12
746;2038.58;597.43;3.12
747;2046.21;563.738;3.12
748;2026.37;573.748;3.12
749;1991.89;571.795;3.12
750;1969.61;587.42;3.12
751;1989.44;561.785;3.12
