<WeldAnalyseData xmlns:i="http:www.w3.org/2001/XMLSchema-instance">
<WeldParameter>
<TimeStamp>DT#2024-01-25-15:26:49</TimeStamp>
<Generator>SG-22-10000</Generator>
<GenFreq>20</GenFreq>
<MaxForce>8000</MaxForce>
<MaxPower>10000</MaxPower>
<RunupPressure>1.5</RunupPressure>
<RunupDist>10</RunupDist>
<RunPress>0.8</RunPress>
<ShakeDelay>0.03</ShakeDelay>
<ShakeTime>0.3</ShakeTime>
<RunBackPress1>6</RunBackPress1>
<RunBackPress2>2</RunBackPress2>
<RunBackDist>1</RunBackDist>
<TrigValue>500</TrigValue>
<TrigModeUnit>W</TrigModeUnit>
<WeldModeUnit>Ws</WeldModeUnit>
<PressNr>0</PressNr>
<MaxLoss>1500</MaxLoss>
</WeldParameter>
<WeldSets>
<WeldSet>
<PressRiseTime>0</PressRiseTime>
<RunPressure>1</RunPressure>
<Amplitude>86</Amplitude>
<WeldMode>3270</WeldMode>
</WeldSet>
</WeldSets>
<WeldValue>
<WeldNr>3044</WeldNr>
<RecipeName>RickStyle</RecipeName>
<WeldTime>1684</WeldTime>
<DistDiff>2.38</DistDiff>
<DistAbs>78.05</DistAbs>
<Energy>3270.99</Energy>
<MaxPower>2159.38</MaxPower>
<CycleTime>6010</CycleTime>
<TrigForce>502.701</TrigForce>
<TrigDist>75.67</TrigDist>
<RunSpeed>67.5022</RunSpeed>
<MaxForce>617.206</MaxForce>
<LossPower>324.526</LossPower>
</WeldValue>
</WeldAnalyseData>
#CSV-START#
ms;Power[W];Force[N];Distance[mm]
1;0;0;0
2;0;502.701;0.0100021
3;0;500.748;0.0100021
4;0;500.748;0.0100021
5;0;502.701;0.0100021
6;0;502.701;0.0100021
7;0;504.654;0.0100021
8;0;472.915;0.0100021
9;0;421.644;0.0200043
10;0;399.915;0.0400009
11;0;354.503;0.0800018
12;25.8263;354.503;0.120003
13;92.6618;323.008;0.160004
14;171.705;314.951;0.200005
15;248.306;295.419;0.25
16;314.837;291.269;0.290001
17;371.601;281.503;0.340004
18;435.69;299.326;0.389999
19;512.291;271.737;0.440002
20;586.451;287.362;0.480003
21;655.423;317.148;0.520004
22;724.7;277.596;0.550003
23;788.789;311.045;0.580002
24;850.742;317.148;0.610001
25;912.389;336.68;0.630005
26;981.361;334.727;0.650002
27;1040.87;350.597;0.669998
28;1095.19;338.633;0.68
29;1134.56;386.242;0.690002
30;1154.4;392.102;0.700005
31;1173.93;370.373;0.700005
32;1223.37;415.784;0.709999
33;1265.49;415.784;0.709999
34;1297.53;415.784;0.709999
35;1332.02;403.821;0.720001
36;1354.3;421.644;0.720001
37;1361.62;417.737;0.730003
38;1388.78;441.42;0.730003
39;1448.29;407.971;0.740005
40;1494.99;421.644;0.740005
41;1532.22;453.383;0.75
42;1556.94;407.971;0.75
43;1559.38;421.644;0.760002
44;1554.19;423.597;0.760002
45;1576.47;441.42;0.770004
46;1616.15;421.644;0.770004
47;1645.75;431.654;0.779999
48;1668.03;411.878;0.779999
49;1675.35;457.289;0.790001
50;1660.4;441.42;0.800003
51;1655.51;407.971;0.800003
52;1702.51;461.196;0.810005
53;1749.51;445.326;0.82
54;1781.56;445.326;0.82
55;1803.83;429.456;0.830002
56;1808.72;453.383;0.840004
57;1798.65;445.326;0.849998
58;1813.6;472.915;0.849998
59;1875.25;427.503;0.860001
60;1917.36;449.232;0.870003
61;1944.53;486.831;0.870003
62;1954.29;427.503;0.880005
63;1939.64;455.336;0.880005
64;1912.48;453.383;0.889999
65;1922.25;472.915;0.889999
66;1966.8;453.383;0.900002
67;1988.78;463.149;0.910004
68;1998.85;443.373;0.910004
69;1986.34;494.644;0.919998
70;1956.73;472.915;0.919998
71;1932.01;441.42;0.93
72;1974.13;506.607;0.93
73;2015.94;477.065;0.940002
74;2038.22;477.065;0.940002
75;2045.54;469.008;0.940002
76;2033.33;490.738;0.950005
77;2006.17;480.972;0.950005
78;2011.06;502.701;0.959999
79;2065.38;457.289;0.959999
80;2097.42;482.925;0.970001
81;2117.26;510.514;0.970001
82;2114.82;449.232;0.980003
83;2087.66;484.878;0.980003
84;2053.17;486.831;0.980003
85;2055.61;498.795;0.990005
86;2087.66;484.878;0.990005
87;2102.61;486.831;1
88;2107.49;479.019;1
89;2082.77;508.56;1
90;2043.1;500.748;1.01
91;2015.94;463.149;1.01
92;2053.17;514.42;1.02
93;2085.22;510.514;1.02
94;2097.42;506.607;1.02
95;2105.05;488.784;1.03
96;2085.22;512.467;1.03
97;2053.17;506.607;1.03
98;2055.61;530.29;1.04
99;2107.49;492.691;1.04
100;2144.42;498.795;1.04
101;2159.38;538.102;1.05
102;2151.75;486.831;1.05
103;2117.26;498.795;1.05
104;2072.7;498.795;1.06001
105;2075.45;520.524;1.06001
106;2102.61;496.597;1.06001
107;2112.38;504.654;1.07
108;2114.82;480.972;1.07
109;2085.22;530.29;1.07
110;2040.66;516.373;1.08
111;2011.06;477.065;1.08
112;2048.29;534.196;1.08
113;2075.45;514.42;1.09
114;2090.1;522.477;1.09
115;2092.54;500.748;1.09
116;2070.26;524.43;1.1
117;2038.22;514.42;1.1
118;2038.22;540.056;1.1
119;2085.22;492.691;1.1
120;2114.82;512.467;1.11
121;2129.77;550.066;1.11
122;2122.14;490.738;1.11
123;2085.22;516.373;1.12
124;2050.73;510.514;1.12
125;2053.17;532.243;1.12
126;2085.22;508.56;1.12
127;2097.42;520.524;1.13
128;2107.49;498.795;1.13
129;2087.66;548.112;1.13
130;2048.29;524.43;1.13
131;2015.94;490.738;1.14
132;2048.29;552.019;1.14
133;2077.89;524.43;1.14
134;2087.66;528.336;1.14
135;2085.22;512.467;1.15
136;2062.94;536.149;1.15
137;2026.01;524.43;1.15
138;2023.57;548.112;1.15
139;2067.82;498.795;1.16
140;2092.54;522.477;1.16
141;2105.05;553.972;1.16
142;2097.42;492.691;1.16
143;2058.05;522.477;1.17
144;2021.13;522.477;1.17
145;2021.13;536.149;1.17
146;2048.29;518.326;1.17
147;2055.61;524.43;1.17
148;2053.17;510.514;1.18
149;2040.66;553.972;1.18
150;1998.85;528.336;1.18
151;1956.73;498.795;1.18
152;1969.24;553.972;1.18
153;2008.61;534.196;1.19
154;2026.01;534.196;1.19
155;2033.33;520.524;1.19
156;2021.13;540.056;1.19
157;1991.22;530.29;1.19
158;1971.69;553.972;1.2
159;2008.61;506.607;1.2
160;2043.1;528.336;1.2
161;2062.94;561.785;1.2
162;2067.82;504.654;1.2
163;2038.22;530.29;1.21
164;2001.29;526.383;1.21
165;1983.89;544.206;1.21
166;2013.5;522.477;1.21
167;2028.45;532.243;1.21
168;2028.45;514.42;1.21
169;2015.94;563.738;1.22
170;1974.13;536.149;1.22
171;1936.9;508.56;1.22
172;1951.85;569.842;1.22
173;1991.22;538.102;1.22
174;2006.17;540.056;1.22
175;2013.5;526.383;1.23
176;2003.73;548.112;1.23
177;1974.13;540.056;1.23
178;1954.29;557.878;1.23
179;1996.41;510.514;1.23
180;2030.89;538.102;1.23
181;2050.73;569.842;1.24001
182;2053.17;526.383;1.24001
183;2028.45;528.336;1.24001
184;1991.22;532.243;1.24001
185;1974.13;552.019;1.24001
186;2003.73;534.196;1.24001
187;2015.94;538.102;1.25
188;2018.38;514.42;1.25
189;2003.73;552.019;1.25
190;1964.06;546.159;1.25
191;1922.25;510.514;1.25
192;1939.64;557.878;1.25
193;1976.57;552.019;1.26
194;1991.22;548.112;1.26
195;1996.41;528.336;1.26
196;1986.34;553.972;1.26
197;1954.29;544.206;1.26
198;1939.64;569.842;1.26
199;1976.57;528.336;1.27
200;2011.06;540.056;1.27
201;2028.45;575.701;1.27
202;2030.89;524.43;1.27
203;2003.73;540.056;1.27
204;1969.24;536.149;1.27
205;1951.85;555.925;1.28
206;1974.13;536.149;1.28
207;1991.22;544.206;1.28
208;1991.22;520.524;1.28
209;1979.01;567.888;1.28
210;1942.08;548.112;1.28
211;1904.85;516.373;1.28
212;1919.8;569.842;1.29
213;1956.73;552.019;1.29
214;1974.13;553.972;1.29
215;1981.45;536.149;1.29
216;1971.69;557.878;1.29
217;1939.64;550.066;1.29
218;1924.69;573.748;1.29
219;1964.06;526.383;1.3
220;1998.85;544.206;1.3
221;2015.94;579.608;1.3
222;2018.38;522.477;1.3
223;1993.96;546.159;1.3
224;1956.73;542.009;1.3
225;1942.08;561.785;1.3
226;1969.24;538.102;1.31001
227;1981.45;548.112;1.31001
228;1983.89;526.383;1.31001
229;1971.69;577.654;1.31001
230;1934.45;553.972;1.31001
231;1897.53;520.524;1.31001
232;1912.48;583.514;1.31001
233;1949.41;553.972;1.31001
234;1969.24;555.925;1.32
235;1974.13;542.009;1.32
236;1964.06;561.785;1.32
237;1934.45;552.019;1.32
238;1919.8;573.748;1.32
239;1961.62;526.383;1.32
240;1996.41;550.066;1.32
241;2013.5;581.561;1.33
242;2013.5;520.524;1.33
243;1988.78;542.009;1.33
244;1951.85;546.159;1.33
245;1942.08;563.738;1.33
246;1966.8;550.066;1.33
247;1979.01;550.066;1.33
248;1981.45;530.29;1.33
249;1969.24;565.935;1.34
250;1932.01;561.785;1.34
251;1897.53;526.383;1.34
252;1912.48;569.842;1.34
253;1949.41;565.935;1.34
254;1966.8;561.785;1.34
255;1971.69;546.159;1.34
256;1959.17;569.842;1.35
257;1932.01;555.925;1.35
258;1917.36;585.467;1.35
259;1959.17;548.112;1.35
260;1991.22;553.972;1.35
261;2006.17;589.618;1.35
262;2008.61;540.056;1.35
263;1986.34;552.019;1.35
264;1946.97;550.066;1.36
265;1936.9;567.888;1.36
266;1961.62;548.112;1.36
267;1971.69;555.925;1.36
268;1976.57;532.243;1.36
269;1959.17;573.748;1.36
270;1924.69;563.738;1.36
271;1887.76;528.336;1.36
272;1904.85;581.561;1.37
273;1942.08;565.935;1.37
274;1956.73;567.888;1.37
275;1961.62;550.066;1.37
276;1951.85;575.701;1.37
277;1919.8;563.738;1.37
278;1909.73;587.42;1.37
279;1949.41;546.159;1.37
280;1981.45;559.832;1.38
281;1996.41;595.477;1.38
282;2001.29;540.056;1.38
283;1976.57;559.832;1.38
284;1942.08;557.878;1.38
285;1929.57;575.701;1.38
286;1954.29;553.972;1.38
287;1961.62;561.785;1.38
288;1971.69;544.206;1.39
289;1954.29;591.571;1.39
290;1919.8;569.842;1.39
291;1882.57;536.149;1.39
292;1902.41;597.43;1.39
293;1936.9;571.795;1.39
294;1949.41;571.795;1.39
295;1959.17;559.832;1.39
296;1949.41;577.654;1.4
297;1917.36;567.888;1.4
298;1907.29;593.524;1.4
299;1949.41;544.206;1.4
300;1979.01;567.888;1.4
301;1993.96;599.384;1.4
302;2001.29;538.102;1.4
303;1974.13;567.888;1.4
304;1934.45;561.785;1.4
305;1924.69;579.608;1.41
306;1951.85;561.785;1.41
307;1961.62;569.842;1.41
308;1966.8;546.159;1.41
309;1949.41;593.524;1.41
310;1914.92;575.701;1.41
311;1880.13;540.056;1.41
312;1899.97;597.43;1.41
313;1934.45;577.654;1.41
314;1949.41;579.608;1.42
315;1954.29;561.785;1.42
316;1944.53;583.514;1.42
317;1914.92;571.795;1.42
318;1904.85;595.477;1.42
319;1944.53;553.972;1.42
320;1976.57;569.842;1.42
321;1991.22;605.243;1.42
322;1996.41;546.159;1.42
323;1969.24;569.842;1.43
324;1934.45;567.888;1.43
325;1924.69;585.467;1.43
326;1951.85;561.785;1.43
327;1959.17;573.748;1.43
328;1961.62;553.972;1.43
329;1946.97;601.337;1.43
330;1912.48;579.608;1.43
331;1877.69;548.112;1.44
332;1895.08;607.196;1.44
333;1932.01;575.701;1.44
334;1944.53;579.608;1.44
335;1949.41;563.738;1.44
336;1936.9;579.608;1.44
337;1909.73;577.654;1.44
338;1899.97;603.29;1.44
339;1944.53;573.748;1.44
340;1976.57;569.842;1.44
341;1991.22;605.243;1.45
342;1991.22;563.738;1.45
343;1964.06;567.888;1.45
344;1929.57;571.795;1.45
345;1919.8;585.467;1.45
346;1944.53;569.842;1.45
347;1956.73;573.748;1.45
348;1961.62;552.019;1.45
349;1946.97;589.618;1.45
350;1909.73;581.561;1.46
351;1875.25;546.159;1.46
352;1897.53;591.571;1.46
353;1929.57;587.42;1.46
354;1944.53;581.561;1.46
355;1951.85;567.888;1.46
356;1939.64;589.618;1.46
357;1909.73;579.608;1.46
358;1899.97;607.196;1.46
359;1942.08;567.888;1.46
360;1974.13;573.748;1.47
361;1988.78;609.149;1.47
362;1991.22;561.785;1.47
363;1964.06;569.842;1.47
364;1929.57;569.842;1.47
365;1919.8;589.618;1.47
366;1946.97;565.935;1.47
367;1956.73;575.701;1.47
368;1959.17;552.019;1.47
369;1944.53;599.384;1.47
370;1907.29;585.467;1.48
371;1872.81;546.159;1.48
372;1895.08;601.337;1.48
373;1929.57;583.514;1.48
374;1944.53;585.467;1.48
375;1946.97;565.935;1.48
376;1936.9;591.571;1.48
377;1907.29;579.608;1.48
378;1899.97;603.29;1.48
379;1942.08;557.878;1.48
380;1974.13;575.701;1.49001
381;1988.78;609.149;1.49001
382;1986.34;553.972;1.49001
383;1961.62;575.701;1.49001
384;1927.13;571.795;1.49001
385;1917.36;591.571;1.49001
386;1946.97;567.888;1.49001
387;1954.29;577.654;1.49001
388;1956.73;559.832;1.49001
389;1944.53;605.243;1.49001
390;1907.29;583.514;1.5
391;1870.36;548.112;1.5
392;1892.64;607.196;1.5
393;1927.13;583.514;1.5
394;1942.08;583.514;1.5
395;1946.97;567.888;1.5
396;1934.45;579.608;1.5
397;1904.85;579.608;1.5
398;1897.53;603.29;1.5
399;1939.64;575.701;1.5
400;1971.69;571.795;1.5
401;1986.34;607.196;1.51
402;1986.34;571.795;1.51
403;1959.17;569.842;1.51
404;1927.13;573.748;1.51
405;1917.36;589.618;1.51
406;1944.53;577.654;1.51
407;1956.73;577.654;1.51
408;1959.17;553.972;1.51
409;1944.53;591.571;1.51
410;1907.29;585.467;1.51
411;1872.81;550.066;1.51
412;1895.08;591.571;1.52
413;1929.57;593.524;1.52
414;1942.08;585.467;1.52
415;1949.41;569.842;1.52
416;1936.9;589.618;1.52
417;1907.29;581.561;1.52
418;1899.97;605.243;1.52
419;1942.08;571.795;1.52
420;1974.13;573.748;1.52
421;1988.78;611.347;1.52
422;1991.22;563.738;1.52
423;1961.62;571.795;1.53
424;1924.69;571.795;1.53
425;1922.25;591.571;1.53
426;1946.97;567.888;1.53
427;1956.73;577.654;1.53
428;1959.17;555.925;1.53
429;1942.08;595.477;1.53
430;1904.85;585.467;1.53
431;1872.81;550.066;1.53
432;1897.53;599.384;1.53
433;1929.57;589.618;1.53
434;1944.53;585.467;1.53
435;1946.97;569.842;1.54
436;1936.9;593.524;1.54
437;1907.29;581.561;1.54
438;1902.41;607.196;1.54
439;1944.53;565.935;1.54
440;1974.13;575.701;1.54
441;1988.78;613.3;1.54
442;1986.34;557.878;1.54
443;1961.62;575.701;1.54
444;1924.69;571.795;1.54
445;1919.8;589.618;1.54
446;1944.53;567.888;1.55
447;1956.73;577.654;1.55
448;1956.73;557.878;1.55
449;1942.08;605.243;1.55
450;1904.85;583.514;1.55
451;1872.81;550.066;1.55
452;1897.53;607.196;1.55
453;1929.57;581.561;1.55
454;1944.53;585.467;1.55
455;1949.41;569.842;1.55
456;1936.9;593.524;1.55
457;1907.29;583.514;1.55
458;1897.53;607.196;1.56001
459;1946.97;569.842;1.56001
460;1971.69;575.701;1.56001
461;1988.78;613.3;1.56001
462;1988.78;561.785;1.56001
463;1959.17;571.795;1.56001
464;1927.13;573.748;1.56001
465;1919.8;591.571;1.56001
466;1946.97;569.842;1.56001
467;1956.73;581.561;1.56001
468;1959.17;557.878;1.56001
469;1942.08;599.384;1.56001
470;1907.29;583.514;1.57
471;1875.25;550.066;1.57
472;1899.97;603.29;1.57
473;1932.01;585.467;1.57
474;1946.97;585.467;1.57
475;1949.41;569.842;1.57
476;1939.64;593.524;1.57
477;1907.29;581.561;1.57
478;1904.85;609.149;1.57
479;1946.97;561.785;1.57
480;1976.57;577.654;1.57
481;1991.22;615.253;1.57
482;1988.78;557.878;1.58
483;1961.62;577.654;1.58
484;1929.57;575.701;1.58
485;1924.69;591.571;1.58
486;1951.85;569.842;1.58
487;1959.17;581.561;1.58
488;1961.62;559.832;1.58
489;1949.41;585.467;1.58
490;1914.92;591.571;1.58
491;1880.13;555.925;1.58
492;1895.08;587.42;1.58
493;1929.57;599.384;1.58
494;1944.53;585.467;1.58
495;1951.85;571.795;1.59
496;1939.64;581.561;1.59
497;1914.92;585.467;1.59
498;1899.97;607.196;1.59
499;1942.08;581.561;1.59
500;1976.57;575.701;1.59
501;1988.78;609.149;1.59
502;1993.96;571.795;1.59
503;1969.24;567.888;1.59
504;1934.45;575.701;1.59
505;1919.8;593.524;1.59
506;1946.97;577.654;1.6
507;1956.73;579.608;1.6
508;1964.06;557.878;1.6
509;1951.85;593.524;1.6
510;1912.48;587.42;1.6
511;1877.69;553.972;1.6
512;1892.64;595.477;1.6
513;1929.57;593.524;1.6
514;1946.97;589.618;1.6
515;1954.29;571.795;1.6
516;1942.08;593.524;1.6
517;1914.92;585.467;1.6
518;1899.97;611.347;1.6
519;1939.64;573.748;1.61
520;1976.57;575.701;1.61
521;1993.96;615.253;1.61
522;1993.96;565.935;1.61
523;1969.24;575.701;1.61
524;1934.45;575.701;1.61
525;1919.8;593.524;1.61
526;1946.97;571.795;1.61
527;1961.62;581.561;1.61
528;1964.06;557.878;1.61
529;1949.41;597.43;1.61
530;1912.48;585.467;1.61
531;1880.13;550.066;1.61
532;1897.53;603.29;1.62
533;1932.01;589.618;1.62
534;1944.53;589.618;1.62
535;1954.29;571.795;1.62
536;1942.08;595.477;1.62
537;1914.92;585.467;1.62
538;1902.41;609.149;1.62
539;1942.08;567.888;1.62
540;1979.01;581.561;1.62
541;1993.96;617.206;1.62
542;1993.96;559.832;1.62
543;1971.69;577.654;1.62
544;1934.45;575.701;1.63
545;1927.13;595.477;1.63
546;1951.85;571.795;1.63
547;1961.62;581.561;1.63
548;1966.8;559.832;1.63
549;1951.85;609.149;1.63
550;1917.36;591.571;1.63
551;1880.13;559.832;1.63
552;1897.53;583.514;1.63
553;1934.45;601.337;1.63
554;1949.41;583.514;1.63
555;1954.29;571.795;1.63
556;1944.53;579.608;1.63
557;1914.92;585.467;1.64
558;1902.41;605.243;1.64
559;1944.53;579.608;1.64
560;1974.13;573.748;1.64
561;1991.22;609.149;1.64
562;1993.96;575.701;1.64
563;1969.24;569.842;1.64
564;1934.45;579.608;1.64
565;1924.69;589.618;1.64
566;1949.41;583.514;1.64
567;1959.17;579.608;1.64
568;1964.06;557.878;1.64
569;1946.97;589.618;1.64
570;1914.92;589.618;1.64
571;1880.13;552.019;1.65
572;1899.97;593.524;1.65
573;1932.01;593.524;1.65
574;1946.97;585.467;1.65
575;1954.29;571.795;1.65
576;1944.53;591.571;1.65
577;1914.92;585.467;1.65
578;1907.29;609.149;1.65
579;1946.97;575.701;1.65
580;1979.01;575.701;1.65
581;1991.22;617.206;1.65
582;1993.96;569.842;1.65
583;1969.24;573.748;1.65
584;1932.01;575.701;1.66
585;1922.25;593.524;1.66
586;1949.41;571.795;1.66
587;1959.17;579.608;1.66
588;1964.06;555.925;1.66
589;1949.41;597.43;1.66
590;1909.73;587.42;1.66
591;1880.13;548.112;1.66
592;1899.97;601.337;1.66
593;1934.45;591.571;1.66
594;1951.85;589.618;1.66
595;1956.73;569.842;1.66
596;1946.97;595.477;1.66
597;1917.36;585.467;1.67
598;1902.41;607.196;1.67
599;1946.97;571.795;1.67
600;1979.01;579.608;1.67
601;1991.22;615.253;1.67
602;1993.96;561.785;1.67
603;1974.13;577.654;1.67
604;1932.01;571.795;1.67
605;1924.69;591.571;1.67
606;1951.85;571.795;1.67
607;1961.62;581.561;1.67
608;1964.06;559.832;1.67
609;1949.41;603.29;1.67
610;1914.92;585.467;1.67
611;1880.13;552.019;1.68
612;1904.85;595.477;1.68
613;1934.45;593.524;1.68
614;1946.97;589.618;1.68
615;1954.29;571.795;1.68
616;1944.53;589.618;1.68
617;1912.48;583.514;1.68
618;1902.41;605.243;1.68
619;1946.97;571.795;1.68
620;1976.57;577.654;1.68
621;1988.78;615.253;1.68
622;1991.22;565.935;1.68
623;1966.8;573.748;1.68
624;1932.01;575.701;1.68
625;1922.25;593.524;1.68
626;1949.41;569.842;1.69
627;1959.17;579.608;1.69
628;1961.62;553.972;1.69
629;1949.41;597.43;1.69
630;1912.48;585.467;1.69
631;1877.69;550.066;1.69
632;1902.41;603.29;1.69
633;1934.45;589.618;1.69
634;1949.41;589.618;1.69
635;1954.29;569.842;1.69
636;1942.08;595.477;1.69
637;1914.92;579.608;1.69
638;1902.41;607.196;1.69
639;1946.97;565.935;1.69
640;1976.57;577.654;1.7
641;1988.78;613.3;1.7
642;1991.22;557.878;1.7
643;1966.8;557.878;1.7
644;1932.01;579.608;1.7
645;1922.25;589.618;1.7
646;1951.85;591.571;1.7
647;1959.17;577.654;1.7
648;1961.62;557.878;1.7
649;1946.97;585.467;1.7
650;1909.73;593.524;1.7
651;1877.69;555.925;1.7
652;1897.53;581.561;1.7
653;1924.69;601.337;1.7
654;1942.08;583.514;1.7
655;1949.41;571.795;1.71
656;1946.97;579.608;1.71
657;1922.25;583.514;1.71
658;1899.97;603.29;1.71
659;1924.69;579.608;1.71
660;1966.8;571.795;1.71
661;1981.45;609.149;1.71
662;1991.22;577.654;1.71
663;1976.57;569.842;1.71
664;1939.64;577.654;1.71
665;1917.36;589.618;1.71
666;1939.64;581.561;1.71
667;1956.73;577.654;1.71
668;1959.17;555.925;1.71
669;1951.85;589.618;1.71
670;1922.25;589.618;1.72
671;1885.32;552.019;1.72
672;1882.57;589.618;1.72
673;1919.8;595.477;1.72
674;1939.64;583.514;1.72
675;1949.41;569.842;1.72
676;1944.53;587.42;1.72
677;1919.8;583.514;1.72
678;1897.53;605.243;1.72
679;1924.69;571.795;1.72
680;1966.8;577.654;1.72
681;1983.89;613.3;1.72
682;1991.22;567.888;1.72
683;1976.57;573.748;1.72
684;1939.64;573.748;1.72
685;1919.8;591.571;1.72
686;1939.64;571.795;1.73
687;1956.73;577.654;1.73
688;1959.17;552.019;1.73
689;1951.85;593.524;1.73
690;1922.25;585.467;1.73
691;1882.57;550.066;1.73
692;1882.57;599.384;1.73
693;1922.25;589.618;1.73
694;1939.64;583.514;1.73
695;1949.41;569.842;1.73
696;1944.53;591.571;1.73
697;1917.36;581.561;1.73
698;1897.53;605.243;1.73
699;1927.13;565.935;1.73
700;1966.8;577.654;1.73
701;1981.45;613.3;1.73
702;1991.22;561.785;1.74001
703;1974.13;575.701;1.74001
704;1939.64;573.748;1.74001
705;1917.36;589.618;1.74001
706;1939.64;587.42;1.74001
707;1951.85;575.701;1.74001
708;1959.17;557.878;1.74001
709;1949.41;581.561;1.74001
710;1919.8;591.571;1.74001
711;1882.57;555.925;1.74001
712;1882.57;579.608;1.74001
713;1919.8;603.29;1.74001
714;1939.64;581.561;1.74001
715;1946.97;569.842;1.74001
716;1942.08;573.748;1.74001
717;1917.36;581.561;1.75
718;1897.53;603.29;1.75
719;1922.25;579.608;1.75
720;1966.8;571.795;1.75
721;1981.45;605.243;1.75
722;1991.22;577.654;1.75
723;1974.13;563.738;1.75
724;1936.9;575.701;1.75
725;1917.36;587.42;1.75
726;1936.9;583.514;1.75
727;1951.85;575.701;1.75
728;1956.73;555.925;1.75
729;1949.41;587.42;1.75
730;1917.36;587.42;1.75
731;1877.69;553.972;1.75
732;1882.57;589.618;1.76
733;1919.8;595.477;1.76
734;1936.9;583.514;1.76
735;1944.53;569.842;1.76
736;1939.64;587.42;1.76
737;1914.92;583.514;1.76
738;1892.64;607.196;1.76
739;1922.25;573.748;1.76
740;1964.06;573.748;1.76
741;1981.45;611.347;1.76
742;1988.78;569.842;1.76
743;1974.13;569.842;1.76
744;1939.64;573.748;1.76
745;1917.36;589.618;1.76
