<WeldAnalyseData xmlns:i="http:www.w3.org/2001/XMLSchema-instance">
<WeldParameter>
<TimeStamp>DT#2023-09-29-10:41:58</TimeStamp>
<Generator>SG-22-10000</Generator>
<GenFreq>20</GenFreq>
<MaxForce>8000</MaxForce>
<MaxPower>10000</MaxPower>
<RunupPressure>1.5</RunupPressure>
<RunupDist>10</RunupDist>
<RunPress>0.8</RunPress>
<ShakeDelay>0.03</ShakeDelay>
<ShakeTime>0.3</ShakeTime>
<RunBackPress1>6</RunBackPress1>
<RunBackPress2>2</RunBackPress2>
<RunBackDist>1</RunBackDist>
<TrigValue>500</TrigValue>
<TrigModeUnit>W</TrigModeUnit>
<WeldModeUnit>Ws</WeldModeUnit>
<PressNr>0</PressNr>
<MaxLoss>1500</MaxLoss>
</WeldParameter>
<WeldSets>
<WeldSet>
<PressRiseTime>0</PressRiseTime>
<RunPressure>1</RunPressure>
<Amplitude>86</Amplitude>
<WeldMode>3270</WeldMode>
</WeldSet>
</WeldSets>
<WeldValue>
<WeldNr>1760</WeldNr>
<RecipeName>RickStyle</RecipeName>
<WeldTime>1650</WeldTime>
<DistDiff>2.55</DistDiff>
<DistAbs>78.62</DistAbs>
<Energy>3271.13</Energy>
<MaxPower>2214.48</MaxPower>
<CycleTime>5810</CycleTime>
<TrigForce>504.654</TrigForce>
<TrigDist>76.07</TrigDist>
<RunSpeed>70.8287</RunSpeed>
<MaxForce>605.243</MaxForce>
<LossPower>217.54</LossPower>
</WeldValue>
</WeldAnalyseData>
#CSV-START#
ms;Power[W];Force[N];Distance[mm]
1;0;0;0
2;0;508.56;0
3;0;504.654;0
4;0;506.607;0
5;0;506.607;0
6;0;508.56;0
7;0;506.607;0
8;0;488.784;0.0100021
9;0;431.654;0.0199966
10;53.7698;421.644;0.0400009
11;93.4439;384.045;0.0699997
12;127.93;372.326;0.110001
13;179.811;352.55;0.160004
14;258.854;332.774;0.209999
15;328.131;324.961;0.260002
16;384.896;299.326;0.309998
17;436.777;321.055;0.360001
18;481.029;303.232;0.410004
19;532.91;295.419;0.449997
20;596.999;321.055;0.5
21;661.393;311.045;0.540001
22;720.599;319.102;0.580002
23;779.805;317.148;0.610001
24;836.57;346.69;0.639999
25;893.334;350.597;0.660004
26;955.287;380.139;0.68
27;1036.77;350.597;0.699997
28;1098.42;384.045;0.709999
29;1155.18;405.774;0.720001
30;1202.18;388.195;0.730003
31;1229.34;411.878;0.730003
32;1243.99;415.784;0.730003
33;1266.27;433.607;0.739998
34;1305.64;413.831;0.739998
35;1332.8;427.503;0.739998
36;1357.52;409.925;0.739998
37;1374.92;459.243;0.75
38;1374.92;435.56;0.75
39;1377.36;421.644;0.760002
40;1416.73;455.336;0.760002
41;1461.28;435.56;0.769997
42;1490.89;439.467;0.769997
43;1518.05;425.55;0.779999
44;1535.44;453.383;0.779999
45;1537.88;439.467;0.790001
46;1552.53;465.102;0.790001
47;1606.86;417.737;0.800003
48;1646.53;443.373;0.809998
49;1676.13;459.243;0.809998
50;1700.85;427.503;0.82
51;1700.85;449.232;0.830002
52;1691.09;449.232;0.830002
53;1700.85;465.102;0.840004
54;1740.22;441.42;0.849998
55;1764.94;459.243;0.849998
56;1782.34;437.513;0.860001
57;1787.22;486.831;0.870003
58;1767.38;467.055;0.879997
59;1750.29;453.383;0.879997
60;1782.34;482.925;0.889999
61;1821.71;469.008;0.889999
62;1843.99;475.112;0.900002
63;1856.5;459.243;0.910004
64;1858.94;494.644;0.910004
65;1846.43;480.972;0.919998
66;1846.43;504.654;0.919998
67;1893.43;457.289;0.93
68;1927.91;479.019;0.93
69;1947.75;500.748;0.940002
70;1955.07;467.055;0.940002
71;1940.42;488.784;0.949997
72;1913.26;484.878;0.949997
73;1910.82;504.654;0.959999
74;1940.42;472.915;0.959999
75;1955.07;490.738;0.970001
76;1962.4;470.962;0.970001
77;1952.63;522.477;0.980003
78;1923.03;500.748;0.980003
79;1893.43;484.878;0.980003
80;1920.59;518.326;0.989998
81;1952.63;500.748;0.989998
82;1970.03;500.748;1
83;1977.35;490.738;1
84;1967.59;520.524;1.01
85;1947.75;502.701;1.01
86;1940.42;532.243;1.01
87;1984.68;479.019;1.02
88;2014.28;506.607;1.02
89;2036.56;522.477;1.03
90;2036.56;488.784;1.03
91;2019.47;510.514;1.03
92;1989.56;510.514;1.04
93;1982.23;526.383;1.04
94;2006.95;500.748;1.04
95;2019.47;516.373;1.05
96;2024.35;494.644;1.05
97;2011.84;546.159;1.05
98;1977.35;518.326;1.05
99;1945.31;506.607;1.06
100;1967.59;542.009;1.06
101;2002.07;520.524;1.06
102;2014.28;516.373;1.07
103;2019.47;508.56;1.07
104;2011.84;532.243;1.07
105;1984.68;522.477;1.08
106;1974.91;542.009;1.08
107;2019.47;516.373;1.08
108;2046.63;516.373;1.09
109;2063.72;538.102;1.09
110;2063.72;510.514;1.09
111;2043.88;520.524;1.09
112;2009.4;518.326;1.1
113;2004.51;538.102;1.1
114;2024.35;504.654;1.1
115;2036.56;520.524;1.11
116;2036.56;498.795;1.11
117;2024.35;536.149;1.11
118;1989.56;530.29;1.11
119;1955.07;508.56;1.12
120;1972.47;538.102;1.12
121;2004.51;530.29;1.12
122;2016.72;532.243;1.12
123;2021.91;512.467;1.13
124;2011.84;550.066;1.13
125;1987.12;530.29;1.13
126;1977.35;555.925;1.13
127;2019.47;518.326;1.14
128;2049.07;524.43;1.14
129;2063.72;548.112;1.14
130;2066.16;520.524;1.14
131;2043.88;530.29;1.15
132;2009.4;528.336;1.15
133;1999.63;548.112;1.15
134;2021.91;510.514;1.15
135;2034.12;530.29;1.16
136;2034.12;506.607;1.16
137;2019.47;550.066;1.16
138;1982.23;536.149;1.16
139;1945.31;516.373;1.17
140;1962.4;550.066;1.17
141;1994.75;532.243;1.17
142;2006.95;538.102;1.17
143;2011.84;516.373;1.18
144;2002.07;553.972;1.18
145;1974.91;534.196;1.18
146;1959.96;561.785;1.18
147;2004.51;516.373;1.19
148;2034.12;530.29;1.19
149;2049.07;552.019;1.19
150;2051.51;522.477;1.19
151;2034.12;536.149;1.19
152;2002.07;530.29;1.2
153;1989.56;550.066;1.2
154;2014.28;514.42;1.2
155;2024.35;534.196;1.2
156;2026.79;512.467;1.2
157;2014.28;561.785;1.21
158;1977.35;538.102;1.21
159;1942.87;522.477;1.21
160;1957.51;557.878;1.21
161;1989.56;540.056;1.21
162;2002.07;544.206;1.22
163;2004.51;524.43;1.22
164;1994.75;557.878;1.22
165;1967.59;538.102;1.22
166;1955.07;567.888;1.22
167;1997.19;516.373;1.23
168;2026.79;536.149;1.23
169;2039;555.925;1.23
170;2043.88;526.383;1.23
171;2019.47;542.009;1.23
172;1987.12;538.102;1.24
173;1974.91;557.878;1.24
174;1997.19;524.43;1.24
175;2009.4;542.009;1.24
176;2011.84;520.524;1.24
177;1997.19;571.795;1.25
178;1959.96;548.112;1.25
179;1927.91;528.336;1.25
180;1942.87;565.935;1.25
181;1974.91;546.159;1.25
182;1987.12;546.159;1.26
183;1992.31;532.243;1.26
184;1982.23;561.785;1.26
185;1955.07;546.159;1.26
186;1942.87;569.842;1.26
187;1982.23;520.524;1.26
188;2016.72;544.206;1.27
189;2029.23;557.878;1.27
190;2031.67;524.43;1.27
191;2014.28;548.112;1.27
192;1982.23;546.159;1.27
193;1967.59;557.878;1.27
194;1989.56;532.243;1.28
195;2004.51;546.159;1.28
196;2002.07;528.336;1.28
197;1989.56;577.654;1.28
198;1957.51;550.066;1.28
199;1923.03;536.149;1.28
200;1935.24;557.878;1.29
201;1967.59;552.019;1.29
202;1982.23;548.112;1.29
203;1987.12;532.243;1.29
204;1974.91;567.888;1.29
205;1952.63;550.066;1.29
206;1937.98;575.701;1.3
207;1974.91;540.056;1.3
208;2006.95;542.009;1.3
209;2021.91;567.888;1.3
210;2026.79;540.056;1.3
211;2009.4;546.159;1.3
212;1972.47;546.159;1.31
213;1959.96;565.935;1.31
214;1977.35;530.29;1.31
215;1992.31;546.159;1.31
216;1994.75;524.43;1.31
217;1984.68;565.935;1.31
218;1950.19;555.925;1.31
219;1910.82;536.149;1.32
220;1925.47;563.738;1.32
221;1957.51;553.972;1.32
222;1970.03;555.925;1.32
223;1977.35;536.149;1.32
224;1967.59;573.748;1.32
225;1942.87;553.972;1.32
226;1930.35;579.608;1.33
227;1967.59;540.056;1.33
228;1997.19;548.112;1.33
229;2014.28;569.842;1.33
230;2016.72;540.056;1.33
231;2002.07;548.112;1.33
232;1967.59;546.159;1.33
233;1955.07;571.795;1.34
234;1977.35;532.243;1.34
235;1987.12;550.066;1.34
236;1992.31;524.43;1.34
237;1979.79;571.795;1.34
238;1947.75;557.878;1.34
239;1913.26;536.149;1.34
240;1923.03;569.842;1.35
241;1955.07;555.925;1.35
242;1970.03;559.832;1.35
243;1974.91;540.056;1.35
244;1970.03;575.701;1.35
245;1942.87;557.878;1.35
246;1927.91;579.608;1.35
247;1965.14;538.102;1.35
248;1994.75;552.019;1.36
249;2011.84;571.795;1.36
250;2016.72;538.102;1.36
251;1997.19;555.925;1.36
252;1967.59;550.066;1.36
253;1950.19;569.842;1.36
254;1972.47;532.243;1.36
255;1984.68;553.972;1.36
256;1989.56;530.29;1.37
257;1974.91;579.608;1.37
258;1945.31;559.832;1.37
259;1908.07;542.009;1.37
260;1918.15;573.748;1.37
261;1952.63;555.925;1.37
262;1962.4;559.832;1.37
263;1970.03;542.009;1.37
264;1962.4;575.701;1.38
265;1940.42;555.925;1.38
266;1925.47;585.467;1.38
267;1959.96;530.29;1.38
268;1992.31;555.925;1.38
269;2009.4;573.748;1.38
270;2011.84;540.056;1.38
271;1994.75;557.878;1.38
272;1962.4;555.925;1.38
273;1947.75;573.748;1.39
274;1970.03;542.009;1.39
275;1982.23;557.878;1.39
276;1984.68;534.196;1.39
277;1977.35;587.42;1.39
278;1942.87;561.785;1.39
279;1905.63;548.112;1.39
280;1915.7;579.608;1.39
281;1945.31;557.878;1.39
282;1959.96;559.832;1.4
283;1967.59;548.112;1.4
284;1962.4;575.701;1.4
285;1937.98;559.832;1.4
286;1920.59;587.42;1.4
287;1955.07;532.243;1.4
288;1992.31;557.878;1.4
289;2004.51;573.748;1.4
290;2011.84;542.009;1.4
291;1994.75;563.738;1.41
292;1959.96;555.925;1.41
293;1945.31;575.701;1.41
294;1967.59;542.009;1.41
295;1977.35;561.785;1.41
296;1982.23;538.102;1.41
297;1974.91;587.42;1.41
298;1940.42;567.888;1.41
299;1905.63;548.112;1.41
300;1910.82;583.514;1.42
301;1947.75;563.738;1.42
302;1957.51;567.888;1.42
303;1965.14;550.066;1.42
304;1959.96;587.42;1.42
305;1937.98;569.842;1.42
306;1918.15;591.571;1.42
307;1955.07;546.159;1.42
308;1989.56;563.738;1.42
309;2002.07;583.514;1.43
310;2011.84;552.019;1.43
311;1994.75;569.842;1.43
312;1962.4;563.738;1.43
313;1945.31;581.561;1.43
314;1967.59;548.112;1.43
315;1974.91;567.888;1.43
316;1979.79;544.206;1.43
317;1972.47;597.43;1.43
318;1940.42;571.795;1.43
319;1905.63;553.972;1.44
320;1910.82;589.618;1.44
321;1945.31;569.842;1.44
322;1957.51;571.795;1.44
323;1967.59;555.925;1.44
324;1959.96;587.42;1.44
325;1937.98;569.842;1.44
326;1918.15;595.477;1.44
327;1952.63;546.159;1.44
328;1987.12;567.888;1.44
329;2002.07;585.467;1.45
330;2009.4;552.019;1.45
331;1989.56;569.842;1.45
332;1959.96;571.795;1.45
333;1940.42;585.467;1.45
334;1962.4;555.925;1.45
335;1972.47;571.795;1.45
336;1979.79;550.066;1.45
337;1972.47;603.29;1.45
338;1937.98;581.561;1.46
339;1903.19;555.925;1.46
340;1905.63;581.561;1.46
341;1942.87;575.701;1.46
342;1955.07;573.748;1.46
343;1962.4;555.925;1.46
344;1957.51;587.42;1.46
345;1935.24;577.654;1.46
346;1918.15;599.384;1.46
347;1947.75;569.842;1.46
348;1984.68;567.888;1.47
349;1999.63;593.524;1.47
350;2006.95;567.888;1.47
351;1989.56;569.842;1.47
352;1957.51;571.795;1.47
353;1942.87;591.571;1.47
354;1959.96;557.878;1.47
355;1972.47;569.842;1.47
356;1979.79;548.112;1.47
357;1970.03;587.42;1.47
358;1937.98;583.514;1.47
359;1903.19;555.925;1.48
360;1905.63;587.42;1.48
361;1937.98;575.701;1.48
362;1955.07;581.561;1.48
363;1965.14;559.832;1.48
364;1947.75;597.43;1.48
365;1925.47;577.654;1.48
366;1920.59;603.29;1.48
367;1965.14;565.935;1.48
368;1992.31;571.795;1.48
369;2004.51;595.477;1.49
370;2002.07;565.935;1.49
371;1979.79;573.748;1.49
372;1947.75;569.842;1.49
373;1945.31;591.571;1.49
374;1965.14;555.925;1.49
375;1974.91;573.748;1.49
376;1977.35;550.066;1.49
377;1959.96;591.571;1.49
378;1923.03;579.608;1.49
379;1893.43;559.832;1.49
380;1918.15;587.42;1.5
381;1945.31;577.654;1.5
382;1955.07;579.608;1.5
383;1962.4;559.832;1.5
384;1947.75;597.43;1.5
385;1923.03;577.654;1.5
386;1920.59;603.29;1.5
387;1962.4;563.738;1.5
388;1989.56;569.842;1.5
389;1999.63;595.477;1.5
390;2002.07;561.785;1.5
391;1974.91;575.701;1.51
392;1950.19;569.842;1.51
393;1942.87;591.571;1.51
394;1965.14;555.925;1.51
395;1972.47;573.748;1.51
396;1972.47;548.112;1.51
397;1957.51;599.384;1.51
398;1923.03;581.561;1.51
399;1895.87;559.832;1.51
400;1918.15;593.524;1.51
401;1945.31;575.701;1.51
402;1959.96;581.561;1.52
403;1957.51;559.832;1.52
404;1945.31;595.477;1.52
405;1925.47;577.654;1.52
406;1918.15;601.337;1.52
407;1959.96;553.972;1.52
408;1987.12;573.748;1.52
409;1999.63;593.524;1.52
410;2002.07;557.878;1.52
411;1977.35;577.654;1.52
412;1945.31;571.795;1.52
413;1940.42;593.524;1.52
414;1962.4;555.925;1.53
415;1974.91;575.701;1.53
416;1974.91;552.019;1.53
417;1959.96;605.243;1.53
418;1925.47;577.654;1.53
419;1895.87;561.785;1.53
420;1918.15;595.477;1.53
421;1945.31;575.701;1.53
422;1955.07;581.561;1.53
423;1959.96;559.832;1.53
424;1947.75;593.524;1.53
425;1923.03;577.654;1.53
426;1918.15;603.29;1.54
427;1959.96;550.066;1.54
428;1984.68;573.748;1.54
429;1997.19;591.571;1.54
430;2002.07;571.795;1.54
431;1977.35;573.748;1.54
432;1945.31;571.795;1.54
433;1942.87;591.571;1.54
434;1962.4;563.738;1.54
435;1972.47;573.748;1.54
436;1974.91;552.019;1.54
437;1962.4;581.561;1.54
438;1923.03;583.514;1.55
439;1893.43;557.878;1.55
440;1915.7;585.467;1.55
441;1945.31;579.608;1.55
442;1955.07;577.654;1.55
443;1959.96;559.832;1.55
444;1950.19;591.571;1.55
445;1923.03;579.608;1.55
446;1915.7;603.29;1.55
447;1957.51;571.795;1.55
448;1982.23;569.842;1.55
449;1997.19;593.524;1.55
450;2002.07;565.935;1.56
451;1979.79;571.795;1.56
452;1947.75;571.795;1.56
453;1942.87;593.524;1.56
454;1962.4;559.832;1.56
455;1972.47;573.748;1.56
456;1974.91;548.112;1.56
457;1959.96;587.42;1.56
458;1923.03;583.514;1.56
459;1890.98;555.925;1.56
460;1913.26;587.42;1.56
461;1942.87;577.654;1.56
462;1952.63;579.608;1.57
463;1957.51;557.878;1.57
464;1950.19;595.477;1.57
465;1927.91;577.654;1.57
466;1915.7;605.243;1.57
467;1957.51;567.888;1.57
468;1984.68;569.842;1.57
469;1999.63;595.477;1.57
470;2004.51;563.738;1.57
471;1982.23;573.748;1.57
472;1950.19;569.842;1.57
473;1940.42;591.571;1.57
474;1962.4;555.925;1.57
475;1974.91;569.842;1.58
476;1974.91;548.112;1.58
477;1965.14;591.571;1.58
478;1927.91;579.608;1.58
479;1898.31;557.878;1.58
480;1915.7;589.618;1.58
481;1945.31;577.654;1.58
482;1955.07;579.608;1.58
483;1962.4;557.878;1.58
484;1952.63;595.477;1.58
485;1927.91;577.654;1.58
486;1918.15;603.29;1.58
487;1957.51;559.832;1.59
488;1984.68;569.842;1.59
489;2002.07;593.524;1.59
490;2004.51;561.785;1.59
491;1984.68;575.701;1.59
492;1952.63;569.842;1.59
493;1940.42;593.524;1.59
494;1965.14;555.925;1.59
495;1974.91;573.748;1.59
496;1977.35;548.112;1.59
497;1962.4;601.337;1.59
498;1927.91;579.608;1.59
499;1895.87;559.832;1.6
500;1913.26;591.571;1.6
501;1942.87;577.654;1.6
502;1955.07;579.608;1.6
503;1962.4;559.832;1.6
504;1952.63;593.524;1.6
505;1927.91;575.701;1.6
506;1918.15;601.337;1.6
507;1957.51;553.972;1.6
508;1984.68;571.795;1.6
509;2002.07;591.571;1.6
510;2004.51;561.785;1.6
511;1982.23;575.701;1.6
512;1952.63;569.842;1.61
513;1940.42;591.571;1.61
514;1965.14;555.925;1.61
515;1972.47;575.701;1.61
516;1977.35;550.066;1.61
517;1965.14;603.29;1.61
518;1930.35;579.608;1.61
519;1898.31;563.738;1.61
520;1915.7;595.477;1.61
521;1945.31;575.701;1.61
522;1957.51;579.608;1.61
523;1959.96;559.832;1.61
524;1955.07;593.524;1.62
525;1927.91;577.654;1.62
526;1918.15;601.337;1.62
527;1957.51;563.738;1.62
528;1984.68;569.842;1.62
529;1999.63;593.524;1.62
530;2006.95;563.738;1.62
531;1984.68;575.701;1.62
532;1952.63;569.842;1.62
533;1942.87;593.524;1.62
534;1965.14;555.925;1.62
535;1974.91;571.795;1.62
536;1977.35;550.066;1.62
537;1965.14;595.477;1.63
538;1930.35;579.608;1.63
539;1895.87;559.832;1.63
540;1915.7;593.524;1.63
541;1945.31;577.654;1.63
542;1957.51;579.608;1.63
543;1965.14;561.785;1.63
544;1955.07;595.477;1.63
545;1930.35;577.654;1.63
546;1920.59;605.243;1.63
547;1957.51;557.878;1.63
548;1987.12;571.795;1.63
549;2002.07;593.524;1.64
550;2006.95;561.785;1.64
551;1984.68;577.654;1.64
552;1955.07;569.842;1.64
553;1942.87;591.571;1.64
554;1965.14;557.878;1.64
555;1974.91;575.701;1.64
556;1977.35;552.019;1.64
557;1970.03;603.29;1.64
558;1937.98;579.608;1.64
559;1900.75;561.785;1.64
560;1915.7;593.524;1.64
561;1947.75;577.654;1.64
562;1959.96;581.561;1.65
563;1967.59;561.785;1.65
564;1957.51;595.477;1.65
565;1932.79;577.654;1.65
566;1918.15;601.337;1.65
567;1957.51;552.019;1.65
568;1989.56;571.795;1.65
569;2004.51;591.571;1.65
570;2009.4;573.748;1.65
571;1989.56;573.748;1.65
572;1959.96;575.701;1.65
573;1945.31;589.618;1.65
574;1967.59;571.795;1.66
575;1979.79;571.795;1.66
576;1984.68;552.019;1.66
577;1970.03;581.561;1.66
578;1935.24;585.467;1.66
579;1900.75;561.785;1.66
580;1915.7;581.561;1.66
581;1945.31;579.608;1.66
582;1957.51;579.608;1.66
583;1965.14;559.832;1.66
584;1957.51;587.42;1.66
585;1932.79;579.608;1.66
586;1918.15;599.384;1.66
587;1957.51;573.748;1.67
588;1989.56;567.888;1.67
589;2004.51;591.571;1.67
590;2011.84;569.842;1.67
591;1992.31;573.748;1.67
592;1959.96;573.748;1.67
593;1945.31;589.618;1.67
594;1970.03;561.785;1.67
595;1982.23;573.748;1.67
596;1982.23;548.112;1.67
597;1972.47;583.514;1.67
598;1937.98;581.561;1.67
599;1900.75;557.878;1.67
600;1915.7;585.467;1.68
601;1947.75;579.608;1.68
602;1962.4;579.608;1.68
603;1970.03;559.832;1.68
604;1959.96;593.524;1.68
605;1937.98;575.701;1.68
606;1923.03;603.29;1.68
607;1957.51;567.888;1.68
608;1992.31;567.888;1.68
609;2006.95;593.524;1.68
610;2011.84;563.738;1.68
611;1994.75;573.748;1.68
612;1962.4;571.795;1.68
613;1945.31;589.618;1.69
614;1970.03;557.878;1.69
615;1982.23;569.842;1.69
616;1984.68;548.112;1.69
617;1972.47;585.467;1.69
618;1942.87;579.608;1.69
619;1905.63;557.878;1.69
620;1918.15;585.467;1.69
621;1950.19;577.654;1.69
622;1962.4;577.654;1.69
623;1970.03;559.832;1.69
624;1959.96;597.43;1.69
625;1937.98;575.701;1.69
626;1925.47;601.337;1.7
627;1959.96;563.738;1.7
628;1994.75;569.842;1.7
629;2009.4;591.571;1.7
630;2014.28;561.785;1.7
631;1997.19;573.748;1.7
632;1965.14;567.888;1.7
633;1952.63;589.618;1.7
634;1970.03;553.972;1.7
635;1984.68;571.795;1.7
636;1989.56;548.112;1.7
637;1977.35;593.524;1.7
638;1945.31;579.608;1.7
639;1910.82;557.878;1.71
640;1920.59;589.618;1.71
641;1952.63;575.701;1.71
642;1967.59;581.561;1.71
643;1974.91;557.878;1.71
644;1970.03;595.477;1.71
645;1945.31;577.654;1.71
646;1927.91;601.337;1.71
647;1962.4;553.972;1.71
648;1997.19;569.842;1.71
649;2011.84;589.618;1.71
650;2019.47;557.878;1.71
651;2002.07;571.795;1.71
652;1967.59;569.842;1.72
653;1955.07;591.571;1.72
654;1974.91;553.972;1.72
655;1987.12;573.748;1.72
656;1992.31;548.112;1.72
657;1977.35;599.384;1.72
658;1950.19;577.654;1.72
659;1910.82;557.878;1.72
660;1918.15;589.618;1.72
661;1955.07;575.701;1.72
662;1967.59;573.748;1.72
663;1974.91;559.832;1.72
664;1967.59;577.654;1.73
665;1947.75;573.748;1.73
666;1927.91;593.524;1.73
667;1965.14;573.748;1.73
668;1999.63;561.785;1.73
669;2014.28;587.42;1.73
670;2021.91;569.842;1.73
671;2004.51;567.888;1.73
672;1972.47;571.795;1.73
673;1959.96;587.42;1.73
674;1977.35;569.842;1.73
675;1987.12;567.888;1.73
676;1992.31;546.159;1.73
677;1982.23;579.608;1.73
678;1950.19;579.608;1.74
679;1910.82;553.972;1.74
680;1918.15;577.654;1.74
681;1955.07;577.654;1.74
682;1967.59;573.748;1.74
683;1977.35;555.925;1.74
684;1972.47;581.561;1.74
685;1950.19;575.701;1.74
686;1930.35;597.43;1.74
687;1965.14;571.795;1.74
688;1997.19;563.738;1.74
689;2014.28;591.571;1.74
690;2021.91;563.738;1.74
691;2006.95;569.842;1.75
692;1974.91;569.842;1.75
693;1957.51;587.42;1.75
694;1977.35;559.832;1.75
695;1989.56;567.888;1.75
696;1997.19;544.206;1.75
697;1987.12;581.561;1.75
698;1952.63;575.701;1.75
699;1918.15;555.925;1.75
700;1920.59;579.608;1.75
701;1957.51;575.701;1.75
702;1972.47;573.748;1.75
703;1979.79;553.972;1.75
704;1974.91;591.571;1.76
705;1952.63;573.748;1.76
706;1932.79;597.43;1.76
707;1967.59;565.935;1.76
708;2002.07;565.935;1.76
709;2016.72;591.571;1.76
710;2024.35;559.832;1.76
711;2009.4;571.795;1.76
712;1979.79;567.888;1.76
713;1959.96;587.42;1.76
714;1977.35;552.019;1.76
715;1992.31;569.842;1.76
716;1997.19;544.206;1.76
717;1989.56;585.467;1.77
718;1955.07;579.608;1.77
719;1918.15;553.972;1.77
720;1923.03;585.467;1.77
721;1959.96;573.748;1.77
722;1972.47;577.654;1.77
723;1984.68;555.925;1.77
724;1977.35;593.524;1.77
725;1955.07;573.748;1.77
726;1935.24;599.384;1.77
727;1967.59;559.832;1.77
728;2004.51;565.935;1.77
729;2019.47;587.42;1.77
730;2026.79;559.832;1.77
731;2014.28;571.795;1.78
732;1979.79;563.738;1.78
733;1965.14;587.42;1.78
734;1987.12;552.019;1.78
735;1997.19;569.842;1.78
736;2002.07;544.206;1.78
737;1994.75;591.571;1.78
738;1965.14;575.701;1.78
739;1925.47;555.925;1.78
740;1927.91;587.42;1.78
741;1965.14;571.795;1.78
742;1977.35;575.701;1.78
743;1984.68;555.925;1.78
744;1982.23;591.571;1.78
745;1959.96;571.795;1.79
746;1937.98;599.384;1.79
747;1967.59;552.019;1.79
748;2009.4;565.935;1.79
749;2024.35;587.42;1.79
750;2031.67;555.925;1.79
751;2019.47;571.795;1.79
752;1984.68;569.842;1.79
753;1965.14;587.42;1.79
754;1984.68;550.066;1.79
